;PC Software:StarLab Version 2.10 Build 25
;Logged:14/09/2022 at 15:20:27
;File Version:3
;Graph Type:Line
;Notes:                                                            

;Channel A:Nova II Photodiode PD300-3W-v1 (s/n:763106)  NN2.52 (s/n:767396)
;Channel B:Vega Thermopile 10A-V1.1 (s/n:693380)  VG2.44 (s/n:858327)

;Channel A:Details
;Name:PD300-3W-v1
;Graph Color:RGB(0,102,255)
;Units:W
;Settings:Measuring:Power
;Settings:Wavelength:1064
;Settings:Range:AUTO
;Settings:Filter:IN

;Channel B:Details
;Name:10A-V1.1
;Graph Color:RGB(154,0,0)
;Units:W
;Settings:Measuring:Power
;Settings:Laser:.8-6
;Settings:Range:AUTO
;--------------------


;First Pulse Arrived : 14/09/2022 at 15:20:27.843000
  Timestamp   	  Channel A  	  Channel B  	
         0.000	             	  4.299e-001 	
         0.016	  5.150e-002 	             	
         0.064	             	  4.298e-001 	
         0.080	  5.150e-002 	             	
         0.128	             	  4.299e-001 	
         0.144	  5.150e-002 	             	
         0.192	             	  4.298e-001 	
         0.208	  5.170e-002 	             	
         0.272	  5.150e-002 	             	
         0.288	             	  4.297e-001 	
         0.336	  5.170e-002 	             	
         0.352	             	  4.297e-001 	
         0.400	  5.150e-002 	             	
         0.416	             	  4.297e-001 	
         0.464	  5.150e-002 	             	
         0.480	             	  4.297e-001 	
         0.528	  5.150e-002 	             	
         0.544	             	  4.297e-001 	
         0.592	  5.160e-002 	             	
         0.608	             	  4.297e-001 	
         0.672	             	  4.297e-001 	
         0.688	  5.150e-002 	             	
         0.736	             	  4.297e-001 	
         0.752	  5.160e-002 	             	
         0.800	             	  4.296e-001 	
         0.816	  5.180e-002 	             	
         0.864	             	  4.296e-001 	
         0.880	  5.150e-002 	             	
         0.928	             	  4.296e-001 	
         0.944	  5.160e-002 	             	
         0.992	             	  4.296e-001 	
         1.008	  5.150e-002 	             	
         1.072	  5.170e-002 	             	
         1.088	             	  4.297e-001 	
         1.136	  5.150e-002 	             	
         1.152	             	  4.296e-001 	
         1.200	  5.120e-002 	             	
         1.216	             	  4.296e-001 	
         1.264	  5.140e-002 	             	
         1.280	             	  4.296e-001 	
         1.328	  5.130e-002 	             	
         1.344	             	  4.296e-001 	
         1.392	  5.170e-002 	             	
         1.408	             	  4.296e-001 	
         1.472	             	  4.295e-001 	
         1.488	  5.160e-002 	             	
         1.536	             	  4.294e-001 	
         1.552	  5.150e-002 	             	
         1.600	             	  4.294e-001 	
         1.616	  5.150e-002 	             	
         1.664	             	  4.294e-001 	
         1.680	  5.160e-002 	             	
         1.728	             	  4.293e-001 	
         1.744	  5.140e-002 	             	
         1.792	             	  4.292e-001 	
         1.808	  5.160e-002 	             	
         1.856	             	  4.293e-001 	
         1.872	  5.150e-002 	             	
         1.936	  5.160e-002 	             	
         1.952	             	  4.293e-001 	
         2.000	  5.140e-002 	             	
         2.016	             	  4.294e-001 	
         2.064	  5.140e-002 	             	
         2.080	             	  4.294e-001 	
         2.128	  5.170e-002 	             	
         2.144	             	  4.294e-001 	
         2.192	  5.150e-002 	             	
         2.208	             	  4.294e-001 	
         2.272	             	  4.293e-001 	
         2.288	  5.150e-002 	             	
         2.336	             	  4.292e-001 	
         2.352	  5.170e-002 	             	
         2.400	             	  4.292e-001 	
         2.416	  5.170e-002 	             	
         2.464	             	  4.292e-001 	
         2.480	  5.160e-002 	             	
         2.528	             	  4.293e-001 	
         2.544	  5.160e-002 	             	
         2.592	             	  4.293e-001 	
         2.608	  5.150e-002 	             	
         2.656	             	  4.294e-001 	
         2.672	  5.160e-002 	             	
         2.736	  5.180e-002 	             	
         2.752	             	  4.293e-001 	
         2.800	  5.150e-002 	             	
         2.816	             	  4.294e-001 	
         2.864	  5.170e-002 	             	
         2.880	             	  4.295e-001 	
         2.928	  5.160e-002 	             	
         2.944	             	  4.295e-001 	
         2.992	  5.180e-002 	             	
         3.008	             	  4.296e-001 	
         3.072	             	  4.296e-001 	
         3.088	  5.150e-002 	             	
         3.136	             	  4.295e-001 	
         3.152	  5.150e-002 	             	
         3.200	             	  4.295e-001 	
         3.216	  5.160e-002 	             	
         3.264	             	  4.294e-001 	
         3.280	  5.160e-002 	             	
         3.328	             	  4.294e-001 	
         3.344	  5.160e-002 	             	
         3.392	             	  4.294e-001 	
         3.408	  5.150e-002 	             	
         3.456	             	  4.294e-001 	
         3.472	  5.150e-002 	             	
         3.536	  5.140e-002 	             	
         3.552	             	  4.294e-001 	
         3.600	  5.160e-002 	             	
         3.616	             	  4.294e-001 	
         3.664	  5.160e-002 	             	
         3.680	             	  4.293e-001 	
         3.728	  5.160e-002 	             	
         3.744	             	  4.293e-001 	
         3.792	  5.170e-002 	             	
         3.808	             	  4.293e-001 	
         3.872	             	  4.293e-001 	
         3.888	  5.140e-002 	             	
         3.936	             	  4.293e-001 	
         3.952	  5.140e-002 	             	
         4.000	             	  4.293e-001 	
         4.016	  5.130e-002 	             	
         4.064	             	  4.292e-001 	
         4.080	  5.150e-002 	             	
         4.128	             	  4.292e-001 	
         4.144	  5.130e-002 	             	
         4.192	             	  4.292e-001 	
         4.208	  5.140e-002 	             	
         4.256	             	  4.291e-001 	
         4.272	  5.160e-002 	             	
         4.336	  5.160e-002 	             	
         4.352	             	  4.291e-001 	
         4.400	  5.160e-002 	             	
         4.416	             	  4.290e-001 	
         4.464	  5.150e-002 	             	
         4.480	             	  4.291e-001 	
         4.528	  5.140e-002 	             	
         4.544	             	  4.291e-001 	
         4.592	  5.160e-002 	             	
         4.608	             	  4.291e-001 	
         4.672	             	  4.291e-001 	
         4.688	  5.160e-002 	             	
         4.736	             	  4.291e-001 	
         4.752	  5.150e-002 	             	
         4.800	             	  4.292e-001 	
         4.816	  5.150e-002 	             	
         4.864	             	  4.292e-001 	
         4.880	  5.160e-002 	             	
         4.928	             	  4.292e-001 	
         4.944	  5.170e-002 	             	
         4.992	             	  4.291e-001 	
         5.008	  5.160e-002 	             	
         5.056	             	  4.291e-001 	
         5.072	  5.160e-002 	             	
         5.136	  5.180e-002 	             	
         5.152	             	  4.291e-001 	
         5.200	  5.170e-002 	             	
         5.216	             	  4.292e-001 	
         5.264	  5.190e-002 	             	
         5.280	             	  4.293e-001 	
         5.328	  5.160e-002 	             	
         5.344	             	  4.293e-001 	
         5.392	  5.150e-002 	             	
         5.408	             	  4.294e-001 	
         5.456	  5.120e-002 	             	
         5.472	             	  4.294e-001 	
         5.536	             	  4.293e-001 	
         5.552	  5.170e-002 	             	
         5.600	             	  4.292e-001 	
         5.616	  5.150e-002 	             	
         5.664	             	  4.290e-001 	
         5.680	  5.150e-002 	             	
         5.728	             	  4.289e-001 	
         5.744	  5.150e-002 	             	
         5.792	             	  4.288e-001 	
         5.808	  5.160e-002 	             	
         5.856	             	  4.287e-001 	
         5.872	  5.170e-002 	             	
         5.936	  5.160e-002 	             	
         5.952	             	  4.288e-001 	
         6.000	  5.150e-002 	             	
         6.016	             	  4.289e-001 	
         6.064	  5.160e-002 	             	
         6.080	             	  4.290e-001 	
         6.128	  5.170e-002 	             	
         6.144	             	  4.291e-001 	
         6.192	  5.150e-002 	             	
         6.208	             	  4.292e-001 	
         6.256	  5.160e-002 	             	
         6.272	             	  4.292e-001 	
         6.336	             	  4.293e-001 	
         6.352	  5.150e-002 	             	
         6.400	             	  4.293e-001 	
         6.416	  5.170e-002 	             	
         6.464	             	  4.293e-001 	
         6.480	  5.160e-002 	             	
         6.528	             	  4.292e-001 	
         6.544	  5.160e-002 	             	
         6.592	             	  4.292e-001 	
         6.608	  5.160e-002 	             	
         6.656	             	  4.292e-001 	
         6.672	  5.180e-002 	             	
         6.736	  5.160e-002 	             	
         6.752	             	  4.292e-001 	
         6.800	  5.190e-002 	             	
         6.816	             	  4.293e-001 	
         6.864	  5.180e-002 	             	
         6.880	             	  4.294e-001 	
         6.928	  5.180e-002 	             	
         6.944	             	  4.295e-001 	
         6.992	  5.160e-002 	             	
         7.008	             	  4.296e-001 	
         7.056	  5.160e-002 	             	
         7.072	             	  4.297e-001 	
         7.136	             	  4.298e-001 	
         7.152	  5.170e-002 	             	
         7.200	             	  4.297e-001 	
         7.216	  5.160e-002 	             	
         7.264	             	  4.297e-001 	
         7.280	  5.160e-002 	             	
         7.328	             	  4.296e-001 	
         7.344	  5.190e-002 	             	
         7.392	             	  4.295e-001 	
         7.408	  5.160e-002 	             	
         7.456	             	  4.295e-001 	
         7.472	  5.170e-002 	             	
         7.536	  5.160e-002 	             	
         7.552	             	  4.295e-001 	
         7.600	  5.150e-002 	             	
         7.616	             	  4.295e-001 	
         7.664	  5.180e-002 	             	
         7.680	             	  4.295e-001 	
         7.728	  5.170e-002 	             	
         7.744	             	  4.296e-001 	
         7.792	  5.180e-002 	             	
         7.808	             	  4.296e-001 	
         7.856	  5.170e-002 	             	
         7.872	             	  4.296e-001 	
         7.936	             	  4.296e-001 	
         7.952	  5.160e-002 	             	
         8.000	             	  4.296e-001 	
         8.016	  5.160e-002 	             	
         8.064	             	  4.296e-001 	
         8.080	  5.160e-002 	             	
         8.128	             	  4.296e-001 	
         8.144	  5.180e-002 	             	
         8.192	             	  4.295e-001 	
         8.208	  5.170e-002 	             	
         8.256	             	  4.294e-001 	
         8.272	  5.170e-002 	             	
         8.336	  5.150e-002 	             	
         8.352	             	  4.294e-001 	
         8.400	  5.150e-002 	             	
         8.416	             	  4.293e-001 	
         8.464	  5.170e-002 	             	
         8.480	             	  4.293e-001 	
         8.528	  5.140e-002 	             	
         8.544	             	  4.292e-001 	
         8.592	  5.150e-002 	             	
         8.608	             	  4.291e-001 	
         8.672	             	  4.290e-001 	
         8.688	  5.170e-002 	             	
         8.736	             	  4.290e-001 	
         8.752	  5.170e-002 	             	
         8.800	             	  4.290e-001 	
         8.816	  5.150e-002 	             	
         8.864	             	  4.289e-001 	
         8.880	  5.150e-002 	             	
         8.928	             	  4.288e-001 	
         8.944	  5.170e-002 	             	
         8.992	             	  4.287e-001 	
         9.008	  5.160e-002 	             	
         9.056	             	  4.286e-001 	
         9.072	  5.150e-002 	             	
         9.136	  5.150e-002 	             	
         9.152	             	  4.286e-001 	
         9.200	  5.160e-002 	             	
         9.216	             	  4.286e-001 	
         9.264	  5.160e-002 	             	
         9.280	             	  4.287e-001 	
         9.328	  5.170e-002 	             	
         9.344	             	  4.286e-001 	
         9.392	  5.180e-002 	             	
         9.408	             	  4.286e-001 	
         9.456	  5.170e-002 	             	
         9.472	             	  4.285e-001 	
         9.536	             	  4.285e-001 	
         9.552	  5.160e-002 	             	
         9.600	             	  4.285e-001 	
         9.616	  5.170e-002 	             	
         9.664	             	  4.285e-001 	
         9.680	  5.160e-002 	             	
         9.728	             	  4.286e-001 	
         9.744	  5.150e-002 	             	
         9.792	             	  4.286e-001 	
         9.808	  5.160e-002 	             	
         9.856	             	  4.286e-001 	
         9.872	  5.190e-002 	             	
         9.936	  5.170e-002 	             	
         9.952	             	  4.286e-001 	
        10.000	  5.180e-002 	             	
        10.016	             	  4.287e-001 	
        10.064	  5.170e-002 	             	
        10.080	             	  4.286e-001 	
        10.128	  5.170e-002 	             	
        10.144	             	  4.286e-001 	
        10.192	  5.160e-002 	             	
        10.208	             	  4.287e-001 	
        10.256	  5.170e-002 	             	
        10.272	             	  4.287e-001 	
        10.336	             	  4.287e-001 	
        10.352	  5.180e-002 	             	
        10.400	             	  4.287e-001 	
        10.416	  5.180e-002 	             	
        10.464	             	  4.286e-001 	
        10.480	  5.170e-002 	             	
        10.528	             	  4.287e-001 	
        10.544	  5.160e-002 	             	
        10.592	             	  4.286e-001 	
        10.608	  5.170e-002 	             	
        10.656	             	  4.286e-001 	
        10.672	  5.180e-002 	             	
        10.736	  5.180e-002 	             	
        10.752	             	  4.286e-001 	
        10.800	  5.180e-002 	             	
        10.816	             	  4.286e-001 	
        10.864	  5.170e-002 	             	
        10.880	             	  4.286e-001 	
        10.928	  5.180e-002 	             	
        10.944	             	  4.286e-001 	
        10.992	  5.180e-002 	             	
        11.008	             	  4.286e-001 	
        11.055	  5.180e-002 	             	
        11.072	             	  4.286e-001 	
        11.136	             	  4.286e-001 	
        11.152	  5.190e-002 	             	
        11.200	             	  4.287e-001 	
        11.216	  5.180e-002 	             	
        11.264	             	  4.287e-001 	
        11.280	  5.180e-002 	             	
        11.328	             	  4.286e-001 	
        11.344	  5.160e-002 	             	
        11.392	             	  4.286e-001 	
        11.408	  5.170e-002 	             	
        11.456	             	  4.286e-001 	
        11.472	  5.170e-002 	             	
        11.536	  5.200e-002 	             	
        11.552	             	  4.285e-001 	
        11.600	  5.180e-002 	             	
        11.616	             	  4.285e-001 	
        11.664	  5.170e-002 	             	
        11.680	             	  4.285e-001 	
        11.727	  5.200e-002 	             	
        11.743	             	  4.286e-001 	
        11.792	  5.180e-002 	             	
        11.808	             	  4.286e-001 	
        11.855	  5.190e-002 	             	
        11.872	             	  4.286e-001 	
        11.936	             	  4.286e-001 	
        11.952	  5.180e-002 	             	
        12.000	             	  4.287e-001 	
        12.016	  5.190e-002 	             	
        12.064	             	  4.286e-001 	
        12.080	  5.170e-002 	             	
        12.128	             	  4.287e-001 	
        12.144	  5.180e-002 	             	
        12.192	             	  4.286e-001 	
        12.208	  5.180e-002 	             	
        12.256	             	  4.286e-001 	
        12.271	  5.190e-002 	             	
        12.336	  5.180e-002 	             	
        12.352	             	  4.285e-001 	
        12.399	  5.210e-002 	             	
        12.416	             	  4.284e-001 	
        12.463	  5.210e-002 	             	
        12.479	             	  4.285e-001 	
        12.528	  5.180e-002 	             	
        12.543	             	  4.285e-001 	
        12.591	  5.190e-002 	             	
        12.607	             	  4.286e-001 	
        12.656	  5.180e-002 	             	
        12.671	             	  4.287e-001 	
        12.735	             	  4.287e-001 	
        12.751	  5.200e-002 	             	
        12.800	             	  4.288e-001 	
        12.816	  5.210e-002 	             	
        12.864	             	  4.288e-001 	
        12.879	  5.190e-002 	             	
        12.928	             	  4.288e-001 	
        12.943	  5.200e-002 	             	
        12.991	             	  4.288e-001 	
        13.007	  5.180e-002 	             	
        13.055	             	  4.288e-001 	
        13.071	  5.190e-002 	             	
        13.135	  5.190e-002 	             	
        13.151	             	  4.288e-001 	
        13.199	  5.180e-002 	             	
        13.215	             	  4.288e-001 	
        13.263	  5.190e-002 	             	
        13.279	             	  4.288e-001 	
        13.328	  5.180e-002 	             	
        13.345	             	  4.288e-001 	
        13.392	  5.180e-002 	             	
        13.408	             	  4.288e-001 	
        13.456	  5.200e-002 	             	
        13.472	             	  4.287e-001 	
        13.536	             	  4.287e-001 	
        13.553	  5.210e-002 	             	
        13.600	             	  4.287e-001 	
        13.616	  5.170e-002 	             	
        13.664	             	  4.287e-001 	
        13.680	  5.200e-002 	             	
        13.728	             	  4.288e-001 	
        13.744	  5.190e-002 	             	
        13.792	             	  4.288e-001 	
        13.808	  5.210e-002 	             	
        13.856	             	  4.289e-001 	
        13.872	  5.200e-002 	             	
        13.937	  5.200e-002 	             	
        13.952	             	  4.291e-001 	
        14.000	  5.190e-002 	             	
        14.016	             	  4.291e-001 	
        14.064	  5.210e-002 	             	
        14.080	             	  4.292e-001 	
        14.128	  5.190e-002 	             	
        14.144	             	  4.292e-001 	
        14.192	  5.190e-002 	             	
        14.208	             	  4.292e-001 	
        14.256	  5.190e-002 	             	
        14.272	             	  4.291e-001 	
        14.336	             	  4.290e-001 	
        14.352	  5.200e-002 	             	
        14.400	             	  4.291e-001 	
        14.416	  5.200e-002 	             	
        14.464	             	  4.290e-001 	
        14.480	  5.190e-002 	             	
        14.528	             	  4.290e-001 	
        14.545	  5.200e-002 	             	
        14.592	             	  4.290e-001 	
        14.608	  5.200e-002 	             	
        14.656	             	  4.290e-001 	
        14.672	  5.190e-002 	             	
        14.720	             	  4.290e-001 	
        14.736	  5.210e-002 	             	
        14.800	  5.200e-002 	             	
        14.816	             	  4.291e-001 	
        14.864	  5.210e-002 	             	
        14.880	             	  4.292e-001 	
        14.928	  5.200e-002 	             	
        14.944	             	  4.292e-001 	
        14.992	  5.190e-002 	             	
        15.008	             	  4.292e-001 	
        15.056	  5.200e-002 	             	
        15.072	             	  4.291e-001 	
        15.136	             	  4.290e-001 	
        15.152	  5.200e-002 	             	
        15.200	             	  4.290e-001 	
        15.216	  5.190e-002 	             	
        15.264	             	  4.290e-001 	
        15.280	  5.200e-002 	             	
        15.328	             	  4.289e-001 	
        15.344	  5.220e-002 	             	
        15.392	             	  4.289e-001 	
        15.408	  5.210e-002 	             	
        15.456	             	  4.289e-001 	
        15.472	  5.200e-002 	             	
        15.520	             	  4.288e-001 	
        15.536	  5.220e-002 	             	
        15.600	  5.190e-002 	             	
        15.616	             	  4.288e-001 	
        15.664	  5.210e-002 	             	
        15.680	             	  4.288e-001 	
        15.728	  5.190e-002 	             	
        15.744	             	  4.287e-001 	
        15.792	  5.180e-002 	             	
        15.808	             	  4.288e-001 	
        15.856	  5.190e-002 	             	
        15.872	             	  4.288e-001 	
        15.936	             	  4.288e-001 	
        15.952	  5.180e-002 	             	
        16.000	             	  4.288e-001 	
        16.016	  5.180e-002 	             	
        16.064	             	  4.288e-001 	
        16.080	  5.200e-002 	             	
        16.128	             	  4.287e-001 	
        16.144	  5.180e-002 	             	
        16.192	             	  4.287e-001 	
        16.208	  5.210e-002 	             	
        16.256	             	  4.286e-001 	
        16.272	  5.190e-002 	             	
        16.320	             	  4.285e-001 	
        16.336	  5.200e-002 	             	
        16.400	  5.210e-002 	             	
        16.416	             	  4.285e-001 	
        16.464	  5.190e-002 	             	
        16.480	             	  4.285e-001 	
        16.528	  5.200e-002 	             	
        16.544	             	  4.285e-001 	
        16.592	  5.190e-002 	             	
        16.608	             	  4.285e-001 	
        16.656	  5.220e-002 	             	
        16.672	             	  4.285e-001 	
        16.736	             	  4.286e-001 	
        16.752	  5.180e-002 	             	
        16.800	             	  4.286e-001 	
        16.816	  5.170e-002 	             	
        16.864	             	  4.286e-001 	
        16.880	  5.200e-002 	             	
        16.928	             	  4.286e-001 	
        16.944	  5.210e-002 	             	
        16.992	             	  4.285e-001 	
        17.008	  5.220e-002 	             	
        17.056	             	  4.284e-001 	
        17.072	  5.190e-002 	             	
        17.120	             	  4.285e-001 	
        17.136	  5.220e-002 	             	
        17.200	  5.200e-002 	             	
        17.216	             	  4.285e-001 	
        17.264	  5.220e-002 	             	
        17.280	             	  4.286e-001 	
        17.328	  5.190e-002 	             	
        17.344	             	  4.286e-001 	
        17.392	  5.210e-002 	             	
        17.408	             	  4.288e-001 	
        17.456	  5.200e-002 	             	
        17.472	             	  4.289e-001 	
        17.536	             	  4.290e-001 	
        17.552	  5.200e-002 	             	
        17.600	             	  4.290e-001 	
        17.616	  5.190e-002 	             	
        17.664	             	  4.289e-001 	
        17.680	  5.200e-002 	             	
        17.728	             	  4.288e-001 	
        17.744	  5.200e-002 	             	
        17.792	             	  4.287e-001 	
        17.808	  5.220e-002 	             	
        17.856	             	  4.286e-001 	
        17.872	  5.200e-002 	             	
        17.920	             	  4.286e-001 	
        17.936	  5.210e-002 	             	
        18.000	  5.200e-002 	             	
        18.016	             	  4.287e-001 	
        18.064	  5.210e-002 	             	
        18.080	             	  4.287e-001 	
        18.128	  5.220e-002 	             	
        18.144	             	  4.288e-001 	
        18.192	  5.200e-002 	             	
        18.208	             	  4.289e-001 	
        18.256	  5.220e-002 	             	
        18.272	             	  4.290e-001 	
        18.320	  5.220e-002 	             	
        18.336	             	  4.291e-001 	
        18.400	             	  4.291e-001 	
        18.416	  5.240e-002 	             	
        18.464	             	  4.291e-001 	
        18.480	  5.200e-002 	             	
        18.528	             	  4.291e-001 	
        18.544	  5.210e-002 	             	
        18.592	             	  4.291e-001 	
        18.608	  5.200e-002 	             	
        18.656	             	  4.291e-001 	
        18.672	  5.190e-002 	             	
        18.720	             	  4.291e-001 	
        18.736	  5.210e-002 	             	
        18.800	  5.210e-002 	             	
        18.816	             	  4.290e-001 	
        18.864	  5.200e-002 	             	
        18.880	             	  4.290e-001 	
        18.928	  5.190e-002 	             	
        18.944	             	  4.290e-001 	
        18.992	  5.210e-002 	             	
        19.008	             	  4.290e-001 	
        19.056	  5.200e-002 	             	
        19.072	             	  4.290e-001 	
        19.136	             	  4.289e-001 	
        19.152	  5.190e-002 	             	
        19.200	             	  4.289e-001 	
        19.216	  5.210e-002 	             	
        19.264	             	  4.288e-001 	
        19.280	  5.220e-002 	             	
        19.328	             	  4.288e-001 	
        19.344	  5.220e-002 	             	
        19.392	             	  4.288e-001 	
        19.408	  5.220e-002 	             	
        19.456	             	  4.288e-001 	
        19.472	  5.220e-002 	             	
        19.520	             	  4.288e-001 	
        19.536	  5.220e-002 	             	
        19.600	  5.210e-002 	             	
        19.616	             	  4.289e-001 	
        19.664	  5.220e-002 	             	
        19.680	             	  4.290e-001 	
        19.728	  5.220e-002 	             	
        19.744	             	  4.291e-001 	
        19.792	  5.200e-002 	             	
        19.808	             	  4.292e-001 	
        19.856	  5.200e-002 	             	
        19.872	             	  4.294e-001 	
        19.920	  5.200e-002 	             	
        19.936	             	  4.294e-001 	
        20.000	             	  4.295e-001 	
        20.016	  5.200e-002 	             	
        20.064	             	  4.295e-001 	
        20.080	  5.210e-002 	             	
        20.128	             	  4.295e-001 	
        20.144	  5.200e-002 	             	
        20.192	             	  4.294e-001 	
        20.208	  5.200e-002 	             	
        20.256	             	  4.294e-001 	
        20.272	  5.190e-002 	             	
        20.320	             	  4.293e-001 	
        20.336	  5.180e-002 	             	
        20.400	  5.200e-002 	             	
        20.416	             	  4.292e-001 	
        20.464	  5.200e-002 	             	
        20.480	             	  4.291e-001 	
        20.528	  5.210e-002 	             	
        20.544	             	  4.291e-001 	
        20.592	  5.200e-002 	             	
        20.608	             	  4.291e-001 	
        20.656	  5.200e-002 	             	
        20.672	             	  4.291e-001 	
        20.720	  5.200e-002 	             	
        20.736	             	  4.292e-001 	
        20.800	             	  4.292e-001 	
        20.816	  5.200e-002 	             	
        20.864	             	  4.292e-001 	
        20.880	  5.220e-002 	             	
        20.928	             	  4.291e-001 	
        20.944	  5.210e-002 	             	
        20.992	             	  4.292e-001 	
        21.008	  5.180e-002 	             	
        21.056	             	  4.292e-001 	
        21.072	  5.190e-002 	             	
        21.120	             	  4.292e-001 	
        21.136	  5.200e-002 	             	
        21.200	  5.190e-002 	             	
        21.216	             	  4.291e-001 	
        21.264	  5.200e-002 	             	
        21.280	             	  4.291e-001 	
        21.328	  5.200e-002 	             	
        21.344	             	  4.289e-001 	
        21.392	  5.230e-002 	             	
        21.408	             	  4.289e-001 	
        21.456	  5.210e-002 	             	
        21.472	             	  4.289e-001 	
        21.520	  5.200e-002 	             	
        21.536	             	  4.289e-001 	
        21.600	             	  4.289e-001 	
        21.616	  5.180e-002 	             	
        21.664	             	  4.290e-001 	
        21.680	  5.200e-002 	             	
        21.728	             	  4.290e-001 	
        21.744	  5.210e-002 	             	
        21.792	             	  4.290e-001 	
        21.808	  5.200e-002 	             	
        21.856	             	  4.291e-001 	
        21.872	  5.210e-002 	             	
        21.920	             	  4.292e-001 	
        21.936	  5.220e-002 	             	
        22.000	  5.210e-002 	             	
        22.016	             	  4.293e-001 	
        22.064	  5.220e-002 	             	
        22.080	             	  4.292e-001 	
        22.128	  5.200e-002 	             	
        22.144	             	  4.292e-001 	
        22.192	  5.190e-002 	             	
        22.208	             	  4.292e-001 	
        22.256	  5.210e-002 	             	
        22.272	             	  4.292e-001 	
        22.320	  5.210e-002 	             	
        22.336	             	  4.292e-001 	
        22.400	             	  4.292e-001 	
        22.416	  5.240e-002 	             	
        22.464	             	  4.293e-001 	
        22.480	  5.230e-002 	             	
        22.528	             	  4.292e-001 	
        22.544	  5.210e-002 	             	
        22.592	             	  4.292e-001 	
        22.608	  5.200e-002 	             	
        22.656	             	  4.292e-001 	
        22.672	  5.210e-002 	             	
        22.720	             	  4.292e-001 	
        22.736	  5.230e-002 	             	
        22.800	  5.200e-002 	             	
        22.816	             	  4.291e-001 	
        22.864	  5.210e-002 	             	
        22.880	             	  4.292e-001 	
        22.928	  5.220e-002 	             	
        22.944	             	  4.292e-001 	
        22.992	  5.230e-002 	             	
        23.008	             	  4.293e-001 	
        23.056	  5.230e-002 	             	
        23.072	             	  4.294e-001 	
        23.120	  5.210e-002 	             	
        23.136	             	  4.294e-001 	
        23.200	             	  4.295e-001 	
        23.216	  5.210e-002 	             	
        23.264	             	  4.295e-001 	
        23.280	  5.210e-002 	             	
        23.328	             	  4.295e-001 	
        23.344	  5.200e-002 	             	
        23.392	             	  4.295e-001 	
        23.408	  5.220e-002 	             	
        23.456	             	  4.295e-001 	
        23.472	  5.200e-002 	             	
        23.520	             	  4.295e-001 	
        23.536	  5.200e-002 	             	
        23.600	  5.230e-002 	             	
        23.616	             	  4.296e-001 	
        23.664	  5.200e-002 	             	
        23.680	             	  4.296e-001 	
        23.728	  5.220e-002 	             	
        23.744	             	  4.296e-001 	
        23.792	  5.230e-002 	             	
        23.808	             	  4.296e-001 	
        23.856	  5.200e-002 	             	
        23.872	             	  4.296e-001 	
        23.920	  5.220e-002 	             	
        23.936	             	  4.296e-001 	
        24.000	             	  4.297e-001 	
        24.016	  5.250e-002 	             	
        24.064	             	  4.297e-001 	
        24.080	  5.240e-002 	             	
        24.128	             	  4.297e-001 	
        24.144	  5.220e-002 	             	
        24.192	             	  4.297e-001 	
        24.208	  5.210e-002 	             	
        24.256	             	  4.297e-001 	
        24.272	  5.210e-002 	             	
        24.320	             	  4.297e-001 	
        24.336	  5.210e-002 	             	
        24.400	  5.210e-002 	             	
        24.416	             	  4.297e-001 	
        24.464	  5.210e-002 	             	
        24.480	             	  4.297e-001 	
        24.528	  5.230e-002 	             	
        24.544	             	  4.296e-001 	
        24.592	  5.200e-002 	             	
        24.608	             	  4.297e-001 	
        24.656	  5.220e-002 	             	
        24.672	             	  4.297e-001 	
        24.720	  5.230e-002 	             	
        24.736	             	  4.298e-001 	
        24.800	             	  4.299e-001 	
        24.816	  5.190e-002 	             	
        24.864	             	  4.300e-001 	
        24.880	  5.220e-002 	             	
        24.928	             	  4.300e-001 	
        24.944	  5.230e-002 	             	
        24.992	             	  4.300e-001 	
        25.008	  5.210e-002 	             	
        25.056	             	  4.300e-001 	
        25.072	  5.220e-002 	             	
        25.120	             	  4.300e-001 	
        25.136	  5.210e-002 	             	
        25.200	  5.230e-002 	             	
        25.216	             	  4.300e-001 	
        25.264	  5.210e-002 	             	
        25.280	             	  4.300e-001 	
        25.328	  5.220e-002 	             	
        25.344	             	  4.300e-001 	
        25.392	  5.220e-002 	             	
        25.408	             	  4.300e-001 	
        25.456	  5.240e-002 	             	
        25.472	             	  4.299e-001 	
        25.520	  5.210e-002 	             	
        25.536	             	  4.299e-001 	
        25.600	             	  4.298e-001 	
        25.616	  5.220e-002 	             	
        25.664	             	  4.299e-001 	
        25.680	  5.200e-002 	             	
        25.728	             	  4.299e-001 	
        25.744	  5.210e-002 	             	
        25.792	             	  4.299e-001 	
        25.808	  5.220e-002 	             	
        25.856	             	  4.299e-001 	
        25.872	  5.200e-002 	             	
        25.920	             	  4.300e-001 	
        25.936	  5.220e-002 	             	
        26.000	  5.220e-002 	             	
        26.016	             	  4.301e-001 	
        26.064	  5.210e-002 	             	
        26.080	             	  4.300e-001 	
        26.128	  5.200e-002 	             	
        26.144	             	  4.300e-001 	
        26.192	  5.200e-002 	             	
        26.208	             	  4.299e-001 	
        26.256	  5.190e-002 	             	
        26.272	             	  4.298e-001 	
        26.320	  5.220e-002 	             	
        26.336	             	  4.298e-001 	
        26.400	             	  4.298e-001 	
        26.416	  5.210e-002 	             	
        26.464	             	  4.298e-001 	
        26.480	  5.220e-002 	             	
        26.528	             	  4.297e-001 	
        26.544	  5.230e-002 	             	
        26.592	             	  4.298e-001 	
        26.608	  5.220e-002 	             	
        26.656	             	  4.298e-001 	
        26.672	  5.230e-002 	             	
        26.720	             	  4.299e-001 	
        26.736	  5.190e-002 	             	
        26.800	  5.210e-002 	             	
        26.816	             	  4.299e-001 	
        26.864	  5.210e-002 	             	
        26.880	             	  4.299e-001 	
        26.928	  5.200e-002 	             	
        26.944	             	  4.300e-001 	
        26.992	  5.200e-002 	             	
        27.008	             	  4.300e-001 	
        27.056	  5.210e-002 	             	
        27.072	             	  4.300e-001 	
        27.120	  5.210e-002 	             	
        27.136	             	  4.300e-001 	
        27.200	             	  4.299e-001 	
        27.216	  5.220e-002 	             	
        27.264	             	  4.298e-001 	
        27.280	  5.180e-002 	             	
        27.328	             	  4.298e-001 	
        27.344	  5.200e-002 	             	
        27.392	             	  4.298e-001 	
        27.408	  5.190e-002 	             	
        27.456	             	  4.298e-001 	
        27.472	  5.210e-002 	             	
        27.520	             	  4.298e-001 	
        27.536	  5.190e-002 	             	
        27.584	             	  4.298e-001 	
        27.600	  5.200e-002 	             	
        27.664	  5.200e-002 	             	
        27.680	             	  4.298e-001 	
        27.728	  5.210e-002 	             	
        27.744	             	  4.298e-001 	
        27.792	  5.200e-002 	             	
        27.808	             	  4.298e-001 	
        27.856	  5.220e-002 	             	
        27.872	             	  4.298e-001 	
        27.920	  5.190e-002 	             	
        27.936	             	  4.297e-001 	
        28.000	             	  4.297e-001 	
        28.016	  5.200e-002 	             	
        28.064	             	  4.297e-001 	
        28.080	  5.190e-002 	             	
        28.128	             	  4.296e-001 	
        28.144	  5.200e-002 	             	
        28.192	             	  4.296e-001 	
        28.208	  5.190e-002 	             	
        28.256	             	  4.295e-001 	
        28.272	  5.200e-002 	             	
        28.320	             	  4.295e-001 	
        28.336	  5.210e-002 	             	
        28.384	             	  4.294e-001 	
        28.400	  5.210e-002 	             	
        28.464	  5.200e-002 	             	
        28.480	             	  4.294e-001 	
        28.528	  5.210e-002 	             	
        28.544	             	  4.294e-001 	
        28.592	  5.200e-002 	             	
        28.608	             	  4.294e-001 	
        28.656	  5.190e-002 	             	
        28.672	             	  4.295e-001 	
        28.720	  5.170e-002 	             	
        28.736	             	  4.295e-001 	
        28.800	             	  4.295e-001 	
        28.816	  5.190e-002 	             	
        28.864	             	  4.295e-001 	
        28.880	  5.180e-002 	             	
        28.928	             	  4.295e-001 	
        28.944	  5.180e-002 	             	
        28.992	             	  4.295e-001 	
        29.008	  5.190e-002 	             	
        29.056	             	  4.295e-001 	
        29.072	  5.180e-002 	             	
        29.120	             	  4.294e-001 	
        29.136	  5.190e-002 	             	
        29.184	             	  4.294e-001 	
        29.199	  5.200e-002 	             	
        29.264	  5.180e-002 	             	
        29.280	             	  4.293e-001 	
        29.327	  5.210e-002 	             	
        29.344	             	  4.293e-001 	
        29.392	  5.190e-002 	             	
        29.408	             	  4.293e-001 	
        29.456	  5.200e-002 	             	
        29.471	             	  4.292e-001 	
        29.520	  5.210e-002 	             	
        29.536	             	  4.291e-001 	
        29.600	             	  4.291e-001 	
        29.616	  5.180e-002 	             	
        29.664	             	  4.291e-001 	
        29.680	  5.200e-002 	             	
        29.728	             	  4.290e-001 	
        29.744	  5.190e-002 	             	
        29.792	             	  4.290e-001 	
        29.808	  5.180e-002 	             	
        29.856	             	  4.290e-001 	
        29.872	  5.190e-002 	             	
        29.919	             	  4.291e-001 	
        29.935	  5.200e-002 	             	
        29.983	             	  4.291e-001 	
        30.000	  5.190e-002 	             	
        30.063	  5.200e-002 	             	
        30.079	             	  4.291e-001 	
        30.128	  5.190e-002 	             	
        30.143	             	  4.291e-001 	
        30.192	  5.220e-002 	             	
        30.207	             	  4.291e-001 	
        30.255	  5.190e-002 	             	
        30.271	             	  4.292e-001 	
        30.319	  5.200e-002 	             	
        30.335	             	  4.293e-001 	
        30.399	             	  4.294e-001 	
        30.415	  5.210e-002 	             	
        30.464	             	  4.294e-001 	
        30.479	  5.200e-002 	             	
        30.527	             	  4.294e-001 	
        30.544	  5.190e-002 	             	
        30.591	             	  4.294e-001 	
        30.607	  5.200e-002 	             	
        30.656	             	  4.295e-001 	
        30.671	  5.190e-002 	             	
        30.720	             	  4.295e-001 	
        30.735	  5.200e-002 	             	
        30.783	             	  4.295e-001 	
        30.800	  5.180e-002 	             	
        30.864	  5.190e-002 	             	
        30.881	             	  4.296e-001 	
        30.928	  5.200e-002 	             	
        30.944	             	  4.296e-001 	
        30.992	  5.200e-002 	             	
        31.008	             	  4.295e-001 	
        31.056	  5.220e-002 	             	
        31.072	             	  4.294e-001 	
        31.120	  5.180e-002 	             	
        31.136	             	  4.294e-001 	
        31.200	             	  4.293e-001 	
        31.216	  5.210e-002 	             	
        31.264	             	  4.293e-001 	
        31.280	  5.190e-002 	             	
        31.328	             	  4.292e-001 	
        31.344	  5.180e-002 	             	
        31.392	             	  4.291e-001 	
        31.408	  5.180e-002 	             	
        31.457	             	  4.291e-001 	
        31.472	  5.180e-002 	             	
        31.520	             	  4.291e-001 	
        31.536	  5.190e-002 	             	
        31.584	             	  4.290e-001 	
        31.600	  5.160e-002 	             	
        31.664	  5.200e-002 	             	
        31.680	             	  4.290e-001 	
        31.728	  5.170e-002 	             	
        31.744	             	  4.289e-001 	
        31.792	  5.200e-002 	             	
        31.808	             	  4.289e-001 	
        31.856	  5.180e-002 	             	
        31.872	             	  4.289e-001 	
        31.920	  5.190e-002 	             	
        31.936	             	  4.288e-001 	
        31.984	  5.190e-002 	             	
        32.000	             	  4.289e-001 	
        32.064	             	  4.290e-001 	
        32.080	  5.180e-002 	             	
        32.128	             	  4.291e-001 	
        32.144	  5.190e-002 	             	
        32.192	             	  4.292e-001 	
        32.208	  5.200e-002 	             	
        32.256	             	  4.293e-001 	
        32.272	  5.190e-002 	             	
        32.320	             	  4.293e-001 	
        32.336	  5.190e-002 	             	
        32.384	             	  4.294e-001 	
        32.400	  5.190e-002 	             	
        32.464	  5.180e-002 	             	
        32.480	             	  4.294e-001 	
        32.528	  5.190e-002 	             	
        32.544	             	  4.293e-001 	
        32.592	  5.200e-002 	             	
        32.608	             	  4.292e-001 	
        32.656	  5.180e-002 	             	
        32.672	             	  4.292e-001 	
        32.720	  5.180e-002 	             	
        32.736	             	  4.291e-001 	
        32.784	  5.170e-002 	             	
        32.800	             	  4.290e-001 	
        32.864	             	  4.290e-001 	
        32.880	  5.180e-002 	             	
        32.928	             	  4.290e-001 	
        32.944	  5.180e-002 	             	
        32.992	             	  4.289e-001 	
        33.008	  5.180e-002 	             	
        33.056	             	  4.289e-001 	
        33.072	  5.170e-002 	             	
        33.120	             	  4.289e-001 	
        33.136	  5.170e-002 	             	
        33.184	             	  4.289e-001 	
        33.200	  5.170e-002 	             	
        33.265	  5.170e-002 	             	
        33.280	             	  4.290e-001 	
        33.328	  5.180e-002 	             	
        33.344	             	  4.290e-001 	
        33.392	  5.180e-002 	             	
        33.408	             	  4.289e-001 	
        33.456	  5.170e-002 	             	
        33.472	             	  4.289e-001 	
        33.520	  5.190e-002 	             	
        33.536	             	  4.288e-001 	
        33.584	  5.180e-002 	             	
        33.600	             	  4.288e-001 	
        33.664	             	  4.287e-001 	
        33.680	  5.170e-002 	             	
        33.728	             	  4.287e-001 	
        33.744	  5.180e-002 	             	
        33.792	             	  4.287e-001 	
        33.808	  5.180e-002 	             	
        33.856	             	  4.287e-001 	
        33.872	  5.170e-002 	             	
        33.920	             	  4.287e-001 	
        33.936	  5.180e-002 	             	
        33.984	             	  4.287e-001 	
        34.000	  5.180e-002 	             	
        34.064	  5.180e-002 	             	
        34.080	             	  4.287e-001 	
        34.128	  5.170e-002 	             	
        34.144	             	  4.287e-001 	
        34.192	  5.160e-002 	             	
        34.208	             	  4.287e-001 	
        34.256	  5.190e-002 	             	
        34.272	             	  4.287e-001 	
        34.320	  5.170e-002 	             	
        34.336	             	  4.287e-001 	
        34.384	  5.190e-002 	             	
        34.400	             	  4.287e-001 	
        34.464	             	  4.287e-001 	
        34.480	  5.170e-002 	             	
        34.528	             	  4.287e-001 	
        34.544	  5.170e-002 	             	
        34.592	             	  4.287e-001 	
        34.608	  5.180e-002 	             	
        34.656	             	  4.287e-001 	
        34.672	  5.160e-002 	             	
        34.720	             	  4.288e-001 	
        34.736	  5.170e-002 	             	
        34.784	             	  4.288e-001 	
        34.800	  5.180e-002 	             	
        34.864	  5.190e-002 	             	
        34.880	             	  4.288e-001 	
        34.928	  5.180e-002 	             	
        34.944	             	  4.289e-001 	
        34.992	  5.180e-002 	             	
        35.008	             	  4.289e-001 	
        35.056	  5.180e-002 	             	
        35.072	             	  4.289e-001 	
        35.120	  5.190e-002 	             	
        35.136	             	  4.289e-001 	
        35.184	  5.170e-002 	             	
        35.200	             	  4.288e-001 	
        35.264	             	  4.290e-001 	
        35.280	  5.190e-002 	             	
        35.328	             	  4.291e-001 	
        35.344	  5.180e-002 	             	
        35.392	             	  4.291e-001 	
        35.408	  5.170e-002 	             	
        35.456	             	  4.291e-001 	
        35.472	  5.170e-002 	             	
        35.520	             	  4.291e-001 	
        35.536	  5.180e-002 	             	
        35.584	             	  4.291e-001 	
        35.600	  5.180e-002 	             	
        35.664	  5.170e-002 	             	
        35.680	             	  4.290e-001 	
        35.728	  5.180e-002 	             	
        35.744	             	  4.291e-001 	
        35.792	  5.160e-002 	             	
        35.808	             	  4.291e-001 	
        35.856	  5.170e-002 	             	
        35.872	             	  4.290e-001 	
        35.920	  5.170e-002 	             	
        35.936	             	  4.290e-001 	
        35.984	  5.180e-002 	             	
        36.000	             	  4.289e-001 	
        36.064	             	  4.289e-001 	
        36.080	  5.190e-002 	             	
        36.128	             	  4.289e-001 	
        36.144	  5.160e-002 	             	
        36.192	             	  4.289e-001 	
        36.208	  5.180e-002 	             	
        36.256	             	  4.289e-001 	
        36.272	  5.160e-002 	             	
        36.320	             	  4.291e-001 	
        36.336	  5.170e-002 	             	
        36.384	             	  4.292e-001 	
        36.400	  5.180e-002 	             	
        36.464	  5.160e-002 	             	
        36.480	             	  4.293e-001 	
        36.528	  5.170e-002 	             	
        36.544	             	  4.292e-001 	
        36.592	  5.180e-002 	             	
        36.608	             	  4.292e-001 	
        36.656	  5.190e-002 	             	
        36.672	             	  4.291e-001 	
        36.720	  5.160e-002 	             	
        36.736	             	  4.291e-001 	
        36.784	  5.160e-002 	             	
        36.800	             	  4.291e-001 	
        36.864	             	  4.290e-001 	
        36.880	  5.160e-002 	             	
        36.928	             	  4.291e-001 	
        36.944	  5.160e-002 	             	
        36.992	             	  4.291e-001 	
        37.008	  5.170e-002 	             	
        37.056	             	  4.291e-001 	
        37.072	  5.170e-002 	             	
        37.120	             	  4.290e-001 	
        37.136	  5.170e-002 	             	
        37.184	             	  4.290e-001 	
        37.200	  5.150e-002 	             	
        37.264	  5.170e-002 	             	
        37.280	             	  4.290e-001 	
        37.328	  5.170e-002 	             	
        37.344	             	  4.290e-001 	
        37.392	  5.170e-002 	             	
        37.408	             	  4.289e-001 	
        37.456	  5.170e-002 	             	
        37.472	             	  4.289e-001 	
        37.520	  5.160e-002 	             	
        37.536	             	  4.289e-001 	
        37.584	  5.170e-002 	             	
        37.600	             	  4.290e-001 	
        37.664	             	  4.291e-001 	
        37.680	  5.170e-002 	             	
        37.728	             	  4.292e-001 	
        37.744	  5.160e-002 	             	
        37.792	             	  4.293e-001 	
        37.808	  5.180e-002 	             	
        37.856	             	  4.293e-001 	
        37.872	  5.170e-002 	             	
        37.920	             	  4.293e-001 	
        37.936	  5.180e-002 	             	
        37.984	             	  4.294e-001 	
        38.000	  5.140e-002 	             	
        38.064	  5.180e-002 	             	
        38.080	             	  4.294e-001 	
        38.128	  5.170e-002 	             	
        38.144	             	  4.294e-001 	
        38.192	  5.170e-002 	             	
        38.208	             	  4.293e-001 	
        38.256	  5.190e-002 	             	
        38.272	             	  4.293e-001 	
        38.320	  5.180e-002 	             	
        38.336	             	  4.292e-001 	
        38.384	  5.170e-002 	             	
        38.400	             	  4.293e-001 	
        38.464	             	  4.292e-001 	
        38.480	  5.170e-002 	             	
        38.528	             	  4.291e-001 	
        38.544	  5.160e-002 	             	
        38.592	             	  4.291e-001 	
        38.608	  5.170e-002 	             	
        38.656	             	  4.291e-001 	
        38.672	  5.150e-002 	             	
        38.720	             	  4.291e-001 	
        38.736	  5.150e-002 	             	
        38.784	             	  4.290e-001 	
        38.800	  5.160e-002 	             	
        38.864	  5.160e-002 	             	
        38.880	             	  4.289e-001 	
        38.928	  5.150e-002 	             	
        38.944	             	  4.289e-001 	
        38.992	  5.160e-002 	             	
        39.008	             	  4.290e-001 	
        39.056	  5.190e-002 	             	
        39.072	             	  4.291e-001 	
        39.120	  5.170e-002 	             	
        39.136	             	  4.292e-001 	
        39.184	  5.150e-002 	             	
        39.200	             	  4.293e-001 	
        39.264	             	  4.294e-001 	
        39.280	  5.160e-002 	             	
        39.328	             	  4.294e-001 	
        39.344	  5.150e-002 	             	
        39.392	             	  4.294e-001 	
        39.408	  5.170e-002 	             	
        39.456	             	  4.294e-001 	
        39.472	  5.170e-002 	             	
        39.520	             	  4.293e-001 	
        39.536	  5.160e-002 	             	
        39.584	             	  4.293e-001 	
        39.600	  5.170e-002 	             	
        39.648	             	  4.292e-001 	
        39.664	  5.160e-002 	             	
        39.728	  5.190e-002 	             	
        39.744	             	  4.291e-001 	
        39.792	  5.150e-002 	             	
        39.808	             	  4.290e-001 	
        39.856	  5.170e-002 	             	
        39.872	             	  4.289e-001 	
        39.920	  5.150e-002 	             	
        39.936	             	  4.289e-001 	
        39.984	  5.180e-002 	             	
        40.000	             	  4.289e-001 	
        40.064	             	  4.289e-001 	
        40.080	  5.160e-002 	             	
        40.128	             	  4.289e-001 	
        40.144	  5.140e-002 	             	
        40.192	             	  4.290e-001 	
        40.208	  5.160e-002 	             	
        40.256	             	  4.289e-001 	
        40.272	  5.150e-002 	             	
        40.320	             	  4.289e-001 	
        40.336	  5.140e-002 	             	
        40.384	             	  4.289e-001 	
        40.400	  5.160e-002 	             	
        40.448	             	  4.290e-001 	
        40.464	  5.160e-002 	             	
        40.528	  5.170e-002 	             	
        40.544	             	  4.290e-001 	
        40.592	  5.150e-002 	             	
        40.608	             	  4.290e-001 	
        40.656	  5.160e-002 	             	
        40.672	             	  4.290e-001 	
        40.720	  5.150e-002 	             	
        40.736	             	  4.289e-001 	
        40.784	  5.160e-002 	             	
        40.800	             	  4.289e-001 	
        40.864	             	  4.289e-001 	
        40.880	  5.150e-002 	             	
        40.928	             	  4.289e-001 	
        40.944	  5.160e-002 	             	
        40.992	             	  4.288e-001 	
        41.008	  5.150e-002 	             	
        41.056	             	  4.288e-001 	
        41.072	  5.170e-002 	             	
        41.120	             	  4.288e-001 	
        41.136	  5.150e-002 	             	
        41.184	             	  4.287e-001 	
        41.200	  5.160e-002 	             	
        41.248	             	  4.288e-001 	
        41.264	  5.140e-002 	             	
        41.328	  5.160e-002 	             	
        41.344	             	  4.288e-001 	
        41.392	  5.140e-002 	             	
        41.408	             	  4.288e-001 	
        41.456	  5.130e-002 	             	
        41.472	             	  4.287e-001 	
        41.520	  5.140e-002 	             	
        41.536	             	  4.287e-001 	
        41.584	  5.140e-002 	             	
        41.600	             	  4.287e-001 	
        41.664	             	  4.287e-001 	
        41.680	  5.140e-002 	             	
        41.728	             	  4.287e-001 	
        41.744	  5.150e-002 	             	
        41.792	             	  4.287e-001 	
        41.808	  5.150e-002 	             	
        41.856	             	  4.286e-001 	
        41.872	  5.170e-002 	             	
        41.920	             	  4.286e-001 	
        41.936	  5.140e-002 	             	
        41.984	             	  4.286e-001 	
        42.000	  5.170e-002 	             	
        42.048	             	  4.286e-001 	
        42.064	  5.140e-002 	             	
        42.128	  5.150e-002 	             	
        42.144	             	  4.287e-001 	
        42.192	  5.170e-002 	             	
        42.208	             	  4.288e-001 	
        42.256	  5.130e-002 	             	
        42.272	             	  4.288e-001 	
        42.320	  5.140e-002 	             	
        42.336	             	  4.289e-001 	
        42.384	  5.140e-002 	             	
        42.400	             	  4.289e-001 	
        42.464	             	  4.288e-001 	
        42.480	  5.160e-002 	             	
        42.528	             	  4.288e-001 	
        42.544	  5.140e-002 	             	
        42.592	             	  4.288e-001 	
        42.608	  5.150e-002 	             	
        42.656	             	  4.288e-001 	
        42.672	  5.150e-002 	             	
        42.720	             	  4.288e-001 	
        42.736	  5.150e-002 	             	
        42.784	             	  4.288e-001 	
        42.800	  5.140e-002 	             	
        42.848	             	  4.289e-001 	
        42.864	  5.130e-002 	             	
        42.928	  5.150e-002 	             	
        42.944	             	  4.289e-001 	
        42.992	  5.140e-002 	             	
        43.008	             	  4.289e-001 	
        43.056	  5.140e-002 	             	
        43.072	             	  4.290e-001 	
        43.120	  5.150e-002 	             	
        43.136	             	  4.290e-001 	
        43.184	  5.120e-002 	             	
        43.200	             	  4.290e-001 	
        43.264	             	  4.290e-001 	
        43.280	  5.130e-002 	             	
        43.328	             	  4.290e-001 	
        43.344	  5.160e-002 	             	
        43.392	             	  4.289e-001 	
        43.408	  5.140e-002 	             	
        43.456	             	  4.289e-001 	
        43.472	  5.140e-002 	             	
        43.520	             	  4.288e-001 	
        43.536	  5.120e-002 	             	
        43.584	             	  4.288e-001 	
        43.600	  5.150e-002 	             	
        43.648	             	  4.288e-001 	
        43.664	  5.130e-002 	             	
        43.728	  5.150e-002 	             	
        43.744	             	  4.288e-001 	
        43.792	  5.140e-002 	             	
        43.808	             	  4.288e-001 	
        43.856	  5.140e-002 	             	
        43.872	             	  4.288e-001 	
        43.920	  5.130e-002 	             	
        43.936	             	  4.288e-001 	
        43.984	  5.160e-002 	             	
        44.000	             	  4.288e-001 	
        44.064	             	  4.288e-001 	
        44.080	  5.140e-002 	             	
        44.128	             	  4.289e-001 	
        44.144	  5.130e-002 	             	
        44.192	             	  4.289e-001 	
        44.208	  5.110e-002 	             	
        44.256	             	  4.289e-001 	
        44.272	  5.130e-002 	             	
        44.320	             	  4.289e-001 	
        44.336	  5.110e-002 	             	
        44.384	             	  4.289e-001 	
        44.400	  5.150e-002 	             	
        44.448	             	  4.288e-001 	
        44.464	  5.140e-002 	             	
        44.528	  5.120e-002 	             	
        44.544	             	  4.287e-001 	
        44.592	  5.120e-002 	             	
        44.608	             	  4.287e-001 	
        44.656	  5.140e-002 	             	
        44.672	             	  4.288e-001 	
        44.720	  5.120e-002 	             	
        44.736	             	  4.288e-001 	
        44.784	  5.130e-002 	             	
        44.800	             	  4.289e-001 	
        44.864	             	  4.289e-001 	
        44.880	  5.130e-002 	             	
        44.928	             	  4.288e-001 	
        44.944	  5.100e-002 	             	
        44.992	             	  4.289e-001 	
        45.008	  5.130e-002 	             	
        45.056	             	  4.289e-001 	
        45.072	  5.130e-002 	             	
        45.120	             	  4.289e-001 	
        45.136	  5.120e-002 	             	
        45.184	             	  4.289e-001 	
        45.200	  5.110e-002 	             	
        45.248	             	  4.290e-001 	
        45.264	  5.130e-002 	             	
        45.328	  5.130e-002 	             	
        45.344	             	  4.290e-001 	
        45.392	  5.140e-002 	             	
        45.408	             	  4.289e-001 	
        45.456	  5.130e-002 	             	
        45.472	             	  4.289e-001 	
        45.520	  5.110e-002 	             	
        45.536	             	  4.290e-001 	
        45.584	  5.120e-002 	             	
        45.600	             	  4.291e-001 	
        45.648	  5.110e-002 	             	
        45.664	             	  4.291e-001 	
        45.728	             	  4.291e-001 	
        45.744	  5.100e-002 	             	
        45.792	             	  4.290e-001 	
        45.808	  5.130e-002 	             	
        45.856	             	  4.290e-001 	
        45.872	  5.110e-002 	             	
        45.920	             	  4.290e-001 	
        45.936	  5.100e-002 	             	
        45.984	             	  4.289e-001 	
        46.000	  5.090e-002 	             	
        46.048	             	  4.289e-001 	
        46.064	  5.100e-002 	             	
        46.128	  5.100e-002 	             	
        46.144	             	  4.289e-001 	
        46.192	  5.120e-002 	             	
        46.208	             	  4.288e-001 	
        46.256	  5.120e-002 	             	
        46.272	             	  4.289e-001 	
        46.320	  5.100e-002 	             	
        46.336	             	  4.289e-001 	
        46.384	  5.110e-002 	             	
        46.400	             	  4.289e-001 	
        46.448	  5.100e-002 	             	
        46.464	             	  4.288e-001 	
        46.528	             	  4.288e-001 	
        46.543	  5.120e-002 	             	
        46.592	             	  4.289e-001 	
        46.608	  5.120e-002 	             	
        46.656	             	  4.288e-001 	
        46.672	  5.130e-002 	             	
        46.720	             	  4.288e-001 	
        46.735	  5.110e-002 	             	
        46.783	             	  4.288e-001 	
        46.800	  5.120e-002 	             	
        46.848	             	  4.290e-001 	
        46.864	  5.120e-002 	             	
        46.928	  5.100e-002 	             	
        46.943	             	  4.291e-001 	
        46.992	  5.120e-002 	             	
        47.008	             	  4.292e-001 	
        47.056	  5.110e-002 	             	
        47.072	             	  4.292e-001 	
        47.119	  5.100e-002 	             	
        47.136	             	  4.293e-001 	
        47.184	  5.120e-002 	             	
        47.200	             	  4.294e-001 	
        47.247	  5.090e-002 	             	
        47.264	             	  4.295e-001 	
        47.328	             	  4.295e-001 	
        47.344	  5.100e-002 	             	
        47.392	             	  4.295e-001 	
        47.408	  5.110e-002 	             	
        47.456	             	  4.295e-001 	
        47.472	  5.100e-002 	             	
        47.520	             	  4.295e-001 	
        47.535	  5.100e-002 	             	
        47.583	             	  4.295e-001 	
        47.599	  5.110e-002 	             	
        47.647	             	  4.295e-001 	
        47.664	  5.100e-002 	             	
        47.728	  5.110e-002 	             	
        47.743	             	  4.295e-001 	
        47.791	  5.100e-002 	             	
        47.807	             	  4.295e-001 	
        47.856	  5.110e-002 	             	
        47.871	             	  4.295e-001 	
        47.920	  5.100e-002 	             	
        47.935	             	  4.295e-001 	
        47.984	  5.100e-002 	             	
        47.999	             	  4.295e-001 	
        48.048	  5.100e-002 	             	
        48.063	             	  4.295e-001 	
        48.127	             	  4.295e-001 	
        48.143	  5.090e-002 	             	
        48.191	             	  4.296e-001 	
        48.207	  5.110e-002 	             	
        48.255	             	  4.296e-001 	
        48.271	  5.100e-002 	             	
        48.320	             	  4.296e-001 	
        48.336	  5.110e-002 	             	
        48.384	             	  4.297e-001 	
        48.400	  5.100e-002 	             	
        48.448	             	  4.296e-001 	
        48.464	  5.080e-002 	             	
        48.528	  5.080e-002 	             	
        48.544	             	  4.296e-001 	
        48.593	  5.100e-002 	             	
        48.608	             	  4.296e-001 	
        48.656	  5.090e-002 	             	
        48.672	             	  4.296e-001 	
        48.720	  5.090e-002 	             	
        48.736	             	  4.296e-001 	
        48.784	  5.080e-002 	             	
        48.800	             	  4.295e-001 	
        48.848	  5.070e-002 	             	
        48.864	             	  4.295e-001 	
        48.928	             	  4.295e-001 	
        48.944	  5.080e-002 	             	
        48.992	             	  4.295e-001 	
        49.008	  5.080e-002 	             	
        49.057	             	  4.295e-001 	
        49.072	  5.070e-002 	             	
        49.120	             	  4.295e-001 	
        49.136	  5.090e-002 	             	
        49.184	             	  4.295e-001 	
        49.200	  5.080e-002 	             	
        49.248	             	  4.295e-001 	
        49.264	  5.090e-002 	             	
        49.328	  5.080e-002 	             	
        49.344	             	  4.295e-001 	
        49.393	  5.090e-002 	             	
        49.408	             	  4.295e-001 	
        49.456	  5.110e-002 	             	
        49.472	             	  4.295e-001 	
        49.520	  5.070e-002 	             	
        49.536	             	  4.295e-001 	
        49.584	  5.100e-002 	             	
        49.600	             	  4.296e-001 	
        49.648	  5.090e-002 	             	
        49.664	             	  4.296e-001 	
        49.729	             	  4.296e-001 	
        49.744	  5.100e-002 	             	
        49.792	             	  4.296e-001 	
        49.808	  5.080e-002 	             	
        49.856	             	  4.296e-001 	
        49.872	  5.090e-002 	             	
        49.920	             	  4.296e-001 	
        49.936	  5.070e-002 	             	
        49.984	             	  4.296e-001 	
        50.000	  5.090e-002 	             	
        50.048	             	  4.296e-001 	
        50.064	  5.100e-002 	             	
        50.128	  5.090e-002 	             	
        50.144	             	  4.297e-001 	
        50.192	  5.060e-002 	             	
        50.208	             	  4.298e-001 	
        50.256	  5.070e-002 	             	
        50.272	             	  4.298e-001 	
        50.320	  5.080e-002 	             	
        50.336	             	  4.297e-001 	
        50.384	  5.080e-002 	             	
        50.400	             	  4.296e-001 	
        50.448	  5.090e-002 	             	
        50.464	             	  4.295e-001 	
        50.528	             	  4.295e-001 	
        50.544	  5.080e-002 	             	
        50.592	             	  4.295e-001 	
        50.608	  5.070e-002 	             	
        50.656	             	  4.296e-001 	
        50.672	  5.070e-002 	             	
        50.720	             	  4.296e-001 	
        50.736	  5.090e-002 	             	
        50.784	             	  4.297e-001 	
        50.800	  5.070e-002 	             	
        50.848	             	  4.297e-001 	
        50.864	  5.080e-002 	             	
        50.928	  5.070e-002 	             	
        50.944	             	  4.297e-001 	
        50.992	  5.080e-002 	             	
        51.008	             	  4.296e-001 	
        51.056	  5.060e-002 	             	
        51.072	             	  4.296e-001 	
        51.120	  5.050e-002 	             	
        51.136	             	  4.296e-001 	
        51.184	  5.090e-002 	             	
        51.200	             	  4.295e-001 	
        51.248	  5.060e-002 	             	
        51.264	             	  4.294e-001 	
        51.328	             	  4.293e-001 	
        51.344	  5.090e-002 	             	
        51.392	             	  4.293e-001 	
        51.408	  5.080e-002 	             	
        51.456	             	  4.292e-001 	
        51.472	  5.070e-002 	             	
        51.520	             	  4.291e-001 	
        51.536	  5.060e-002 	             	
        51.584	             	  4.292e-001 	
        51.600	  5.060e-002 	             	
        51.648	             	  4.292e-001 	
        51.664	  5.080e-002 	             	
        51.728	  5.070e-002 	             	
        51.744	             	  4.292e-001 	
        51.792	  5.080e-002 	             	
        51.808	             	  4.293e-001 	
        51.856	  5.060e-002 	             	
        51.872	             	  4.294e-001 	
        51.920	  5.060e-002 	             	
        51.936	             	  4.296e-001 	
        51.984	  5.060e-002 	             	
        52.000	             	  4.297e-001 	
        52.048	  5.050e-002 	             	
        52.064	             	  4.297e-001 	
        52.128	             	  4.297e-001 	
        52.144	  5.060e-002 	             	
        52.192	             	  4.297e-001 	
        52.208	  5.070e-002 	             	
        52.256	             	  4.296e-001 	
        52.272	  5.050e-002 	             	
        52.320	             	  4.295e-001 	
        52.336	  5.080e-002 	             	
        52.384	             	  4.295e-001 	
        52.400	  5.060e-002 	             	
        52.448	             	  4.294e-001 	
        52.464	  5.060e-002 	             	
        52.512	             	  4.294e-001 	
        52.528	  5.060e-002 	             	
        52.592	  5.050e-002 	             	
        52.608	             	  4.293e-001 	
        52.656	  5.060e-002 	             	
        52.672	             	  4.292e-001 	
        52.720	  5.060e-002 	             	
        52.736	             	  4.291e-001 	
        52.784	  5.070e-002 	             	
        52.800	             	  4.290e-001 	
        52.848	  5.050e-002 	             	
        52.864	             	  4.289e-001 	
        52.928	             	  4.289e-001 	
        52.944	  5.050e-002 	             	
        52.992	             	  4.289e-001 	
        53.008	  5.050e-002 	             	
        53.056	             	  4.288e-001 	
        53.072	  5.060e-002 	             	
        53.120	             	  4.289e-001 	
        53.136	  5.060e-002 	             	
        53.184	             	  4.289e-001 	
        53.200	  5.060e-002 	             	
        53.248	             	  4.290e-001 	
        53.264	  5.050e-002 	             	
        53.312	             	  4.290e-001 	
        53.328	  5.040e-002 	             	
        53.392	  5.040e-002 	             	
        53.408	             	  4.290e-001 	
        53.456	  5.040e-002 	             	
        53.472	             	  4.290e-001 	
        53.520	  5.050e-002 	             	
        53.536	             	  4.290e-001 	
        53.584	  5.040e-002 	             	
        53.600	             	  4.290e-001 	
        53.648	  5.060e-002 	             	
        53.664	             	  4.289e-001 	
        53.728	             	  4.289e-001 	
        53.744	  5.040e-002 	             	
        53.792	             	  4.288e-001 	
        53.808	  5.070e-002 	             	
        53.856	             	  4.288e-001 	
        53.872	  5.050e-002 	             	
        53.920	             	  4.287e-001 	
        53.936	  5.040e-002 	             	
        53.984	             	  4.288e-001 	
        54.000	  5.050e-002 	             	
        54.048	             	  4.288e-001 	
        54.064	  5.050e-002 	             	
        54.112	             	  4.289e-001 	
        54.128	  5.060e-002 	             	
        54.192	  5.040e-002 	             	
        54.208	             	  4.289e-001 	
        54.256	  5.040e-002 	             	
        54.272	             	  4.289e-001 	
        54.320	  5.050e-002 	             	
        54.336	             	  4.289e-001 	
        54.384	  5.050e-002 	             	
        54.400	             	  4.289e-001 	
        54.448	  5.050e-002 	             	
        54.464	             	  4.288e-001 	
        54.528	             	  4.288e-001 	
        54.544	  5.050e-002 	             	
        54.592	             	  4.288e-001 	
        54.608	  5.040e-002 	             	
        54.656	             	  4.288e-001 	
        54.672	  5.050e-002 	             	
        54.720	             	  4.288e-001 	
        54.736	  5.040e-002 	             	
        54.784	             	  4.287e-001 	
        54.800	  5.040e-002 	             	
        54.848	             	  4.287e-001 	
        54.864	  5.060e-002 	             	
        54.912	             	  4.288e-001 	
        54.928	  5.050e-002 	             	
        54.992	  5.050e-002 	             	
        55.008	             	  4.288e-001 	
        55.056	  5.050e-002 	             	
        55.072	             	  4.288e-001 	
        55.120	  5.050e-002 	             	
        55.136	             	  4.288e-001 	
        55.184	  5.070e-002 	             	
        55.200	             	  4.289e-001 	
        55.248	  5.050e-002 	             	
        55.264	             	  4.289e-001 	
        55.328	             	  4.290e-001 	
        55.344	  5.050e-002 	             	
        55.392	             	  4.291e-001 	
        55.408	  5.050e-002 	             	
        55.456	             	  4.291e-001 	
        55.472	  5.030e-002 	             	
        55.520	             	  4.291e-001 	
        55.536	  5.050e-002 	             	
        55.584	             	  4.291e-001 	
        55.600	  5.030e-002 	             	
        55.648	             	  4.291e-001 	
        55.664	  5.040e-002 	             	
        55.712	             	  4.292e-001 	
        55.728	  5.040e-002 	             	
        55.792	  5.020e-002 	             	
        55.808	             	  4.292e-001 	
        55.856	  5.050e-002 	             	
        55.872	             	  4.292e-001 	
        55.920	  5.030e-002 	             	
        55.936	             	  4.292e-001 	
        55.984	  5.050e-002 	             	
        56.000	             	  4.292e-001 	
        56.048	  5.040e-002 	             	
        56.064	             	  4.292e-001 	
        56.128	             	  4.292e-001 	
        56.144	  5.040e-002 	             	
        56.192	             	  4.292e-001 	
        56.208	  5.030e-002 	             	
        56.256	             	  4.292e-001 	
        56.272	  5.020e-002 	             	
        56.320	             	  4.292e-001 	
        56.336	  5.030e-002 	             	
        56.384	             	  4.291e-001 	
        56.400	  5.030e-002 	             	
        56.448	             	  4.291e-001 	
        56.464	  5.030e-002 	             	
        56.512	             	  4.290e-001 	
        56.528	  5.030e-002 	             	
        56.592	  5.030e-002 	             	
        56.608	             	  4.289e-001 	
        56.656	  5.040e-002 	             	
        56.672	             	  4.288e-001 	
        56.720	  5.040e-002 	             	
        56.736	             	  4.288e-001 	
        56.784	  5.030e-002 	             	
        56.800	             	  4.287e-001 	
        56.848	  5.030e-002 	             	
        56.864	             	  4.287e-001 	
        56.928	             	  4.287e-001 	
        56.944	  5.030e-002 	             	
        56.992	             	  4.287e-001 	
        57.008	  5.030e-002 	             	
        57.056	             	  4.287e-001 	
        57.072	  5.020e-002 	             	
        57.120	             	  4.287e-001 	
        57.136	  5.010e-002 	             	
        57.184	             	  4.288e-001 	
        57.200	  5.030e-002 	             	
        57.248	             	  4.288e-001 	
        57.264	  5.020e-002 	             	
        57.312	             	  4.288e-001 	
        57.328	  5.020e-002 	             	
        57.392	  5.030e-002 	             	
        57.408	             	  4.288e-001 	
        57.456	  5.010e-002 	             	
        57.472	             	  4.288e-001 	
        57.520	  5.010e-002 	             	
        57.536	             	  4.287e-001 	
        57.584	  5.020e-002 	             	
        57.600	             	  4.287e-001 	
        57.648	  5.010e-002 	             	
        57.664	             	  4.286e-001 	
        57.712	  5.010e-002 	             	
        57.728	             	  4.285e-001 	
        57.792	             	  4.285e-001 	
        57.808	  5.040e-002 	             	
        57.856	             	  4.285e-001 	
        57.872	  5.020e-002 	             	
        57.920	             	  4.286e-001 	
        57.936	  5.020e-002 	             	
        57.984	             	  4.286e-001 	
        58.000	  5.020e-002 	             	
        58.048	             	  4.286e-001 	
        58.064	  5.030e-002 	             	
        58.112	             	  4.286e-001 	
        58.128	  5.020e-002 	             	
        58.192	  5.020e-002 	             	
        58.208	             	  4.287e-001 	
        58.256	  5.010e-002 	             	
        58.272	             	  4.287e-001 	
        58.320	  5.010e-002 	             	
        58.336	             	  4.287e-001 	
        58.384	  5.010e-002 	             	
        58.400	             	  4.287e-001 	
        58.448	  5.030e-002 	             	
        58.464	             	  4.287e-001 	
        58.512	  5.030e-002 	             	
        58.528	             	  4.287e-001 	
        58.592	             	  4.287e-001 	
        58.608	  5.020e-002 	             	
        58.656	             	  4.287e-001 	
        58.672	  5.010e-002 	             	
        58.720	             	  4.288e-001 	
        58.736	  5.010e-002 	             	
        58.784	             	  4.288e-001 	
        58.800	  5.000e-002 	             	
        58.848	             	  4.288e-001 	
        58.864	  5.020e-002 	             	
        58.912	             	  4.288e-001 	
        58.928	  5.010e-002 	             	
        58.992	  5.010e-002 	             	
        59.008	             	  4.289e-001 	
        59.056	  5.020e-002 	             	
        59.072	             	  4.289e-001 	
        59.120	  5.020e-002 	             	
        59.136	             	  4.289e-001 	
        59.184	  5.000e-002 	             	
        59.200	             	  4.289e-001 	
        59.248	  5.000e-002 	             	
        59.264	             	  4.290e-001 	
        59.312	  4.990e-002 	             	
        59.328	             	  4.290e-001 	
        59.392	             	  4.290e-001 	
        59.408	  5.000e-002 	             	
        59.456	             	  4.290e-001 	
        59.472	  5.020e-002 	             	
        59.520	             	  4.290e-001 	
        59.536	  5.010e-002 	             	
        59.584	             	  4.289e-001 	
        59.600	  5.010e-002 	             	
        59.648	             	  4.289e-001 	
        59.664	  5.010e-002 	             	
        59.712	             	  4.288e-001 	
        59.728	  5.000e-002 	             	
        59.792	  5.000e-002 	             	
        59.808	             	  4.288e-001 	
        59.856	  5.000e-002 	             	
        59.872	             	  4.287e-001 	
        59.920	  5.000e-002 	             	
        59.936	             	  4.286e-001 	
        59.984	  4.980e-002 	             	
        60.000	             	  4.285e-001 	
        60.048	  5.010e-002 	             	
        60.064	             	  4.286e-001 	
        60.112	  4.990e-002 	             	
        60.128	             	  4.286e-001 	
        60.192	             	  4.286e-001 	
        60.208	  5.010e-002 	             	
        60.256	             	  4.287e-001 	
        60.272	  4.980e-002 	             	
        60.320	             	  4.287e-001 	
        60.336	  4.980e-002 	             	
        60.384	             	  4.287e-001 	
        60.400	  4.980e-002 	             	
        60.448	             	  4.286e-001 	
        60.464	  4.990e-002 	             	
        60.512	             	  4.285e-001 	
        60.528	  4.980e-002 	             	
        60.592	  5.010e-002 	             	
        60.608	             	  4.285e-001 	
        60.656	  5.000e-002 	             	
        60.672	             	  4.285e-001 	
        60.720	  4.990e-002 	             	
        60.736	             	  4.285e-001 	
        60.784	  4.990e-002 	             	
        60.800	             	  4.284e-001 	
        60.848	  4.990e-002 	             	
        60.864	             	  4.284e-001 	
        60.912	  4.990e-002 	             	
        60.928	             	  4.284e-001 	
        60.992	             	  4.284e-001 	
        61.008	  4.990e-002 	             	
        61.056	             	  4.284e-001 	
        61.072	  5.020e-002 	             	
        61.120	             	  4.285e-001 	
        61.136	  5.020e-002 	             	
        61.184	             	  4.285e-001 	
        61.200	  5.010e-002 	             	
        61.248	             	  4.285e-001 	
        61.264	  4.990e-002 	             	
        61.312	             	  4.286e-001 	
        61.328	  5.000e-002 	             	
        61.392	  4.990e-002 	             	
        61.408	             	  4.287e-001 	
        61.456	  5.010e-002 	             	
        61.472	             	  4.288e-001 	
        61.520	  5.000e-002 	             	
        61.536	             	  4.288e-001 	
        61.584	  4.980e-002 	             	
        61.600	             	  4.288e-001 	
        61.648	  5.000e-002 	             	
        61.664	             	  4.289e-001 	
        61.712	  4.980e-002 	             	
        61.728	             	  4.289e-001 	
        61.792	             	  4.289e-001 	
        61.808	  5.000e-002 	             	
        61.856	             	  4.289e-001 	
        61.872	  4.980e-002 	             	
        61.920	             	  4.288e-001 	
        61.936	  4.980e-002 	             	
        61.984	             	  4.287e-001 	
        62.000	  5.000e-002 	             	
        62.048	             	  4.287e-001 	
        62.064	  4.980e-002 	             	
        62.112	             	  4.287e-001 	
        62.128	  5.020e-002 	             	
        62.192	  5.010e-002 	             	
        62.208	             	  4.287e-001 	
        62.256	  4.990e-002 	             	
        62.272	             	  4.288e-001 	
        62.320	  4.990e-002 	             	
        62.336	             	  4.289e-001 	
        62.384	  4.990e-002 	             	
        62.400	             	  4.290e-001 	
        62.448	  4.990e-002 	             	
        62.464	             	  4.290e-001 	
        62.512	  5.000e-002 	             	
        62.528	             	  4.290e-001 	
        62.592	             	  4.291e-001 	
        62.608	  5.020e-002 	             	
        62.656	             	  4.291e-001 	
        62.672	  5.030e-002 	             	
        62.720	             	  4.291e-001 	
        62.736	  4.970e-002 	             	
        62.784	             	  4.291e-001 	
        62.800	  4.980e-002 	             	
        62.848	             	  4.291e-001 	
        62.864	  4.990e-002 	             	
        62.912	             	  4.291e-001 	
        62.928	  4.990e-002 	             	
        62.992	  4.980e-002 	             	
        63.008	             	  4.291e-001 	
        63.056	  4.980e-002 	             	
        63.072	             	  4.291e-001 	
        63.120	  5.000e-002 	             	
        63.136	             	  4.291e-001 	
        63.184	  4.980e-002 	             	
        63.200	             	  4.292e-001 	
        63.248	  5.010e-002 	             	
        63.264	             	  4.292e-001 	
        63.312	  5.000e-002 	             	
        63.328	             	  4.292e-001 	
        63.392	             	  4.291e-001 	
        63.408	  4.990e-002 	             	
        63.456	             	  4.292e-001 	
        63.472	  4.980e-002 	             	
        63.520	             	  4.293e-001 	
        63.536	  5.000e-002 	             	
        63.584	             	  4.293e-001 	
        63.600	  4.980e-002 	             	
        63.648	             	  4.293e-001 	
        63.664	  5.010e-002 	             	
        63.712	             	  4.294e-001 	
        63.728	  5.000e-002 	             	
        63.792	  4.990e-002 	             	
        63.808	             	  4.294e-001 	
        63.856	  4.980e-002 	             	
        63.871	             	  4.295e-001 	
        63.920	  5.000e-002 	             	
        63.936	             	  4.295e-001 	
        63.984	  4.980e-002 	             	
        64.000	             	  4.294e-001 	
        64.048	  4.990e-002 	             	
        64.064	             	  4.293e-001 	
        64.112	  4.970e-002 	             	
        64.128	             	  4.293e-001 	
        64.192	             	  4.292e-001 	
        64.208	  4.980e-002 	             	
        64.256	             	  4.292e-001 	
        64.272	  4.970e-002 	             	
        64.320	             	  4.292e-001 	
        64.336	  4.990e-002 	             	
        64.384	             	  4.292e-001 	
        64.400	  4.980e-002 	             	
        64.448	             	  4.292e-001 	
        64.464	  4.990e-002 	             	
        64.512	             	  4.292e-001 	
        64.528	  5.000e-002 	             	
        64.592	  4.980e-002 	             	
        64.608	             	  4.292e-001 	
        64.655	  4.990e-002 	             	
        64.671	             	  4.292e-001 	
        64.720	  5.010e-002 	             	
        64.736	             	  4.292e-001 	
        64.784	  5.010e-002 	             	
        64.800	             	  4.293e-001 	
        64.848	  4.970e-002 	             	
        64.864	             	  4.293e-001 	
        64.911	  4.990e-002 	             	
        64.927	             	  4.294e-001 	
        64.991	             	  4.294e-001 	
        65.007	  4.980e-002 	             	
        65.056	             	  4.295e-001 	
        65.071	  4.970e-002 	             	
        65.120	             	  4.295e-001 	
        65.135	  5.000e-002 	             	
        65.184	             	  4.295e-001 	
        65.199	  4.960e-002 	             	
        65.247	             	  4.294e-001 	
        65.263	  4.970e-002 	             	
        65.312	             	  4.294e-001 	
        65.327	  4.990e-002 	             	
        65.376	             	  4.293e-001 	
        65.391	  4.980e-002 	             	
        65.456	  4.970e-002 	             	
        65.471	             	  4.292e-001 	
        65.520	  4.990e-002 	             	
        65.535	             	  4.291e-001 	
        65.583	  4.990e-002 	             	
        65.599	             	  4.291e-001 	
        65.647	  4.960e-002 	             	
        65.663	             	  4.291e-001 	
        65.712	  4.970e-002 	             	
        65.727	             	  4.291e-001 	
        65.792	             	  4.291e-001 	
        65.809	  4.980e-002 	             	
        65.857	             	  4.290e-001 	
        65.872	  4.980e-002 	             	
        65.921	             	  4.290e-001 	
        65.936	  4.980e-002 	             	
        65.984	             	  4.289e-001 	
        66.000	  4.990e-002 	             	
        66.048	             	  4.290e-001 	
        66.064	  4.980e-002 	             	
        66.112	             	  4.290e-001 	
        66.129	  4.970e-002 	             	
        66.192	  4.960e-002 	             	
        66.208	             	  4.291e-001 	
        66.256	  4.980e-002 	             	
        66.272	             	  4.291e-001 	
        66.320	  4.990e-002 	             	
        66.336	             	  4.291e-001 	
        66.384	  4.980e-002 	             	
        66.400	             	  4.291e-001 	
        66.448	  4.980e-002 	             	
        66.464	             	  4.290e-001 	
        66.512	  4.970e-002 	             	
        66.528	             	  4.289e-001 	
        66.592	             	  4.290e-001 	
        66.608	  4.990e-002 	             	
        66.656	             	  4.290e-001 	
        66.672	  4.980e-002 	             	
        66.720	             	  4.289e-001 	
        66.736	  4.990e-002 	             	
        66.784	             	  4.289e-001 	
        66.800	  4.980e-002 	             	
        66.848	             	  4.289e-001 	
        66.864	  4.990e-002 	             	
        66.912	             	  4.289e-001 	
        66.928	  5.000e-002 	             	
        66.976	             	  4.290e-001 	
        66.992	  4.970e-002 	             	
        67.056	  4.990e-002 	             	
        67.072	             	  4.290e-001 	
        67.121	  4.980e-002 	             	
        67.136	             	  4.290e-001 	
        67.184	  4.980e-002 	             	
        67.200	             	  4.290e-001 	
        67.248	  4.990e-002 	             	
        67.264	             	  4.290e-001 	
        67.312	  4.980e-002 	             	
        67.328	             	  4.291e-001 	
        67.392	             	  4.291e-001 	
        67.408	  4.970e-002 	             	
        67.456	             	  4.291e-001 	
        67.472	  4.980e-002 	             	
        67.520	             	  4.291e-001 	
        67.536	  4.990e-002 	             	
        67.585	             	  4.291e-001 	
        67.600	  4.990e-002 	             	
        67.648	             	  4.291e-001 	
        67.664	  4.970e-002 	             	
        67.712	             	  4.292e-001 	
        67.728	  4.980e-002 	             	
        67.776	             	  4.292e-001 	
        67.792	  4.980e-002 	             	
        67.856	  4.970e-002 	             	
        67.872	             	  4.291e-001 	
        67.920	  4.970e-002 	             	
        67.936	             	  4.291e-001 	
        67.984	  4.970e-002 	             	
        68.000	             	  4.290e-001 	
        68.048	  4.960e-002 	             	
        68.064	             	  4.290e-001 	
        68.112	  5.000e-002 	             	
        68.128	             	  4.289e-001 	
        68.192	             	  4.289e-001 	
        68.208	  4.970e-002 	             	
        68.256	             	  4.290e-001 	
        68.272	  4.970e-002 	             	
        68.320	             	  4.291e-001 	
        68.336	  4.960e-002 	             	
        68.384	             	  4.292e-001 	
        68.400	  4.980e-002 	             	
        68.448	             	  4.293e-001 	
        68.464	  4.970e-002 	             	
        68.512	             	  4.293e-001 	
        68.528	  4.970e-002 	             	
        68.576	             	  4.293e-001 	
        68.592	  4.980e-002 	             	
        68.656	  4.960e-002 	             	
        68.672	             	  4.294e-001 	
        68.720	  4.950e-002 	             	
        68.736	             	  4.294e-001 	
        68.784	  4.960e-002 	             	
        68.800	             	  4.295e-001 	
        68.848	  4.960e-002 	             	
        68.864	             	  4.295e-001 	
        68.912	  4.950e-002 	             	
        68.928	             	  4.294e-001 	
        68.992	             	  4.294e-001 	
        69.008	  4.940e-002 	             	
        69.056	             	  4.294e-001 	
        69.072	  4.960e-002 	             	
        69.120	             	  4.293e-001 	
        69.136	  4.970e-002 	             	
        69.184	             	  4.293e-001 	
        69.200	  4.950e-002 	             	
        69.248	             	  4.294e-001 	
        69.264	  4.950e-002 	             	
        69.312	             	  4.294e-001 	
        69.328	  4.950e-002 	             	
        69.376	             	  4.293e-001 	
        69.392	  4.960e-002 	             	
        69.456	  4.940e-002 	             	
        69.472	             	  4.293e-001 	
        69.520	  4.940e-002 	             	
        69.536	             	  4.293e-001 	
        69.584	  4.950e-002 	             	
        69.600	             	  4.293e-001 	
        69.648	  4.960e-002 	             	
        69.664	             	  4.292e-001 	
        69.712	  4.960e-002 	             	
        69.728	             	  4.292e-001 	
        69.792	             	  4.291e-001 	
        69.808	  4.950e-002 	             	
        69.856	             	  4.291e-001 	
        69.872	  4.950e-002 	             	
        69.920	             	  4.292e-001 	
        69.936	  4.950e-002 	             	
        69.984	             	  4.293e-001 	
        70.000	  4.960e-002 	             	
        70.048	             	  4.293e-001 	
        70.064	  4.960e-002 	             	
        70.112	             	  4.293e-001 	
        70.128	  4.950e-002 	             	
        70.176	             	  4.293e-001 	
        70.192	  4.970e-002 	             	
        70.256	  4.960e-002 	             	
        70.272	             	  4.294e-001 	
        70.320	  4.960e-002 	             	
        70.336	             	  4.295e-001 	
        70.384	  4.960e-002 	             	
        70.400	             	  4.295e-001 	
        70.448	  4.950e-002 	             	
        70.464	             	  4.296e-001 	
        70.512	  4.970e-002 	             	
        70.528	             	  4.296e-001 	
        70.592	             	  4.297e-001 	
        70.608	  4.960e-002 	             	
        70.656	             	  4.297e-001 	
        70.672	  4.950e-002 	             	
        70.720	             	  4.297e-001 	
        70.736	  4.960e-002 	             	
        70.784	             	  4.297e-001 	
        70.800	  4.960e-002 	             	
        70.848	             	  4.298e-001 	
        70.864	  4.950e-002 	             	
        70.912	             	  4.298e-001 	
        70.928	  4.960e-002 	             	
        70.976	             	  4.298e-001 	
        70.992	  4.960e-002 	             	
        71.056	  4.980e-002 	             	
        71.072	             	  4.297e-001 	
        71.120	  4.970e-002 	             	
        71.136	             	  4.297e-001 	
        71.184	  4.960e-002 	             	
        71.200	             	  4.297e-001 	
        71.248	  4.980e-002 	             	
        71.264	             	  4.297e-001 	
        71.312	  4.960e-002 	             	
        71.328	             	  4.298e-001 	
        71.392	             	  4.298e-001 	
        71.408	  4.970e-002 	             	
        71.456	             	  4.298e-001 	
        71.472	  4.970e-002 	             	
        71.520	             	  4.299e-001 	
        71.536	  4.960e-002 	             	
        71.584	             	  4.300e-001 	
        71.600	  4.960e-002 	             	
        71.648	             	  4.300e-001 	
        71.664	  4.950e-002 	             	
        71.712	             	  4.301e-001 	
        71.728	  4.960e-002 	             	
        71.776	             	  4.301e-001 	
        71.792	  4.970e-002 	             	
        71.856	  4.950e-002 	             	
        71.872	             	  4.300e-001 	
        71.920	  4.960e-002 	             	
        71.936	             	  4.300e-001 	
        71.984	  4.950e-002 	             	
        72.000	             	  4.299e-001 	
        72.048	  4.950e-002 	             	
        72.064	             	  4.299e-001 	
        72.112	  4.960e-002 	             	
        72.128	             	  4.298e-001 	
        72.176	  4.970e-002 	             	
        72.192	             	  4.298e-001 	
        72.256	             	  4.298e-001 	
        72.272	  4.960e-002 	             	
        72.320	             	  4.297e-001 	
        72.336	  4.950e-002 	             	
        72.384	             	  4.297e-001 	
        72.400	  4.970e-002 	             	
        72.448	             	  4.297e-001 	
        72.464	  4.970e-002 	             	
        72.512	             	  4.297e-001 	
        72.528	  4.940e-002 	             	
        72.576	             	  4.297e-001 	
        72.592	  4.970e-002 	             	
        72.656	  4.960e-002 	             	
        72.672	             	  4.296e-001 	
        72.720	  4.980e-002 	             	
        72.736	             	  4.296e-001 	
        72.784	  4.970e-002 	             	
        72.801	             	  4.296e-001 	
        72.848	  4.980e-002 	             	
        72.864	             	  4.297e-001 	
        72.912	  4.960e-002 	             	
        72.928	             	  4.298e-001 	
        72.976	  4.960e-002 	             	
        72.992	             	  4.299e-001 	
        73.056	             	  4.300e-001 	
        73.072	  4.970e-002 	             	
        73.120	             	  4.301e-001 	
        73.136	  4.970e-002 	             	
        73.184	             	  4.301e-001 	
        73.200	  4.960e-002 	             	
        73.248	             	  4.301e-001 	
        73.264	  4.960e-002 	             	
        73.312	             	  4.301e-001 	
        73.328	  4.960e-002 	             	
        73.376	             	  4.301e-001 	
        73.392	  4.970e-002 	             	
        73.456	  4.970e-002 	             	
        73.472	             	  4.300e-001 	
        73.520	  4.970e-002 	             	
        73.536	             	  4.299e-001 	
        73.584	  4.960e-002 	             	
        73.600	             	  4.299e-001 	
        73.648	  4.970e-002 	             	
        73.664	             	  4.299e-001 	
        73.712	  4.960e-002 	             	
        73.728	             	  4.299e-001 	
        73.776	  4.970e-002 	             	
        73.792	             	  4.299e-001 	
        73.856	             	  4.299e-001 	
        73.872	  4.970e-002 	             	
        73.920	             	  4.299e-001 	
        73.936	  4.970e-002 	             	
        73.984	             	  4.299e-001 	
        74.000	  4.960e-002 	             	
        74.048	             	  4.300e-001 	
        74.064	  4.970e-002 	             	
        74.112	             	  4.300e-001 	
        74.128	  4.970e-002 	             	
        74.176	             	  4.301e-001 	
        74.192	  4.960e-002 	             	
        74.256	  4.960e-002 	             	
        74.272	             	  4.301e-001 	
        74.320	  4.960e-002 	             	
        74.336	             	  4.300e-001 	
        74.384	  4.980e-002 	             	
        74.400	             	  4.300e-001 	
        74.448	  4.980e-002 	             	
        74.464	             	  4.299e-001 	
        74.512	  4.960e-002 	             	
        74.528	             	  4.298e-001 	
        74.576	  4.950e-002 	             	
        74.592	             	  4.298e-001 	
        74.656	             	  4.298e-001 	
        74.672	  4.990e-002 	             	
        74.720	             	  4.298e-001 	
        74.736	  4.970e-002 	             	
        74.784	             	  4.298e-001 	
        74.800	  4.980e-002 	             	
        74.848	             	  4.298e-001 	
        74.864	  5.010e-002 	             	
        74.912	             	  4.299e-001 	
        74.928	  4.970e-002 	             	
        74.976	             	  4.299e-001 	
        74.992	  4.970e-002 	             	
        75.056	  4.990e-002 	             	
        75.072	             	  4.300e-001 	
        75.120	  4.980e-002 	             	
        75.136	             	  4.300e-001 	
        75.184	  4.980e-002 	             	
        75.200	             	  4.301e-001 	
        75.248	  4.970e-002 	             	
        75.264	             	  4.301e-001 	
        75.312	  4.990e-002 	             	
        75.328	             	  4.301e-001 	
        75.376	  4.990e-002 	             	
        75.392	             	  4.301e-001 	
        75.456	             	  4.301e-001 	
        75.472	  4.990e-002 	             	
        75.520	             	  4.301e-001 	
        75.536	  4.970e-002 	             	
        75.584	             	  4.301e-001 	
        75.600	  4.980e-002 	             	
        75.648	             	  4.301e-001 	
        75.664	  4.970e-002 	             	
        75.712	             	  4.301e-001 	
        75.728	  4.970e-002 	             	
        75.776	             	  4.300e-001 	
        75.792	  4.980e-002 	             	
        75.856	  4.990e-002 	             	
        75.872	             	  4.300e-001 	
        75.920	  4.990e-002 	             	
        75.936	             	  4.300e-001 	
        75.984	  5.000e-002 	             	
        76.000	             	  4.299e-001 	
        76.048	  4.990e-002 	             	
        76.064	             	  4.300e-001 	
        76.112	  4.970e-002 	             	
        76.128	             	  4.300e-001 	
        76.176	  4.960e-002 	             	
        76.192	             	  4.300e-001 	
        76.256	             	  4.300e-001 	
        76.272	  4.980e-002 	             	
        76.320	             	  4.300e-001 	
        76.336	  4.990e-002 	             	
        76.384	             	  4.299e-001 	
        76.400	  4.990e-002 	             	
        76.448	             	  4.299e-001 	
        76.464	  5.000e-002 	             	
        76.512	             	  4.299e-001 	
        76.528	  4.980e-002 	             	
        76.576	             	  4.299e-001 	
        76.592	  4.990e-002 	             	
        76.656	  4.970e-002 	             	
        76.672	             	  4.299e-001 	
        76.720	  4.980e-002 	             	
        76.736	             	  4.299e-001 	
        76.784	  4.990e-002 	             	
        76.800	             	  4.299e-001 	
        76.848	  4.990e-002 	             	
        76.864	             	  4.299e-001 	
        76.912	  4.990e-002 	             	
        76.928	             	  4.299e-001 	
        76.976	  4.980e-002 	             	
        76.992	             	  4.300e-001 	
        77.056	             	  4.300e-001 	
        77.072	  5.010e-002 	             	
        77.120	             	  4.301e-001 	
        77.136	  4.990e-002 	             	
        77.184	             	  4.300e-001 	
        77.200	  4.990e-002 	             	
        77.248	             	  4.301e-001 	
        77.264	  5.000e-002 	             	
        77.312	             	  4.301e-001 	
        77.328	  5.000e-002 	             	
        77.376	             	  4.300e-001 	
        77.392	  5.000e-002 	             	
        77.456	  5.000e-002 	             	
        77.472	             	  4.300e-001 	
        77.520	  4.990e-002 	             	
        77.536	             	  4.301e-001 	
        77.584	  4.970e-002 	             	
        77.600	             	  4.300e-001 	
        77.648	  4.990e-002 	             	
        77.664	             	  4.300e-001 	
        77.712	  5.000e-002 	             	
        77.728	             	  4.299e-001 	
        77.776	  5.000e-002 	             	
        77.792	             	  4.299e-001 	
        77.856	             	  4.297e-001 	
        77.872	  4.990e-002 	             	
        77.920	             	  4.297e-001 	
        77.936	  5.000e-002 	             	
        77.984	             	  4.298e-001 	
        78.000	  5.000e-002 	             	
        78.048	             	  4.299e-001 	
        78.064	  5.000e-002 	             	
        78.112	             	  4.300e-001 	
        78.128	  5.000e-002 	             	
        78.176	             	  4.301e-001 	
        78.192	  4.990e-002 	             	
        78.256	  5.000e-002 	             	
        78.272	             	  4.301e-001 	
        78.320	  5.020e-002 	             	
        78.336	             	  4.302e-001 	
        78.384	  5.000e-002 	             	
        78.400	             	  4.301e-001 	
        78.448	  5.000e-002 	             	
        78.464	             	  4.300e-001 	
        78.512	  5.000e-002 	             	
        78.528	             	  4.300e-001 	
        78.576	  5.010e-002 	             	
        78.592	             	  4.300e-001 	
        78.656	             	  4.300e-001 	
        78.672	  5.020e-002 	             	
        78.720	             	  4.299e-001 	
        78.736	  5.020e-002 	             	
        78.784	             	  4.298e-001 	
        78.800	  5.000e-002 	             	
        78.848	             	  4.298e-001 	
        78.864	  5.000e-002 	             	
        78.912	             	  4.299e-001 	
        78.928	  5.010e-002 	             	
        78.976	             	  4.299e-001 	
        78.992	  5.010e-002 	             	
        79.056	  5.000e-002 	             	
        79.072	             	  4.300e-001 	
        79.120	  5.010e-002 	             	
        79.136	             	  4.300e-001 	
        79.184	  5.000e-002 	             	
        79.200	             	  4.301e-001 	
        79.248	  5.020e-002 	             	
        79.264	             	  4.301e-001 	
        79.312	  5.000e-002 	             	
        79.328	             	  4.301e-001 	
        79.376	  4.990e-002 	             	
        79.392	             	  4.301e-001 	
        79.456	             	  4.300e-001 	
        79.472	  5.020e-002 	             	
        79.520	             	  4.300e-001 	
        79.536	  5.020e-002 	             	
        79.584	             	  4.299e-001 	
        79.600	  5.020e-002 	             	
        79.648	             	  4.299e-001 	
        79.664	  5.030e-002 	             	
        79.712	             	  4.299e-001 	
        79.728	  5.020e-002 	             	
        79.776	             	  4.299e-001 	
        79.792	  5.000e-002 	             	
        79.840	             	  4.300e-001 	
        79.856	  5.040e-002 	             	
        79.920	  5.020e-002 	             	
        79.936	             	  4.300e-001 	
        79.984	  5.030e-002 	             	
        80.000	             	  4.300e-001 	
        80.048	  5.010e-002 	             	
        80.064	             	  4.300e-001 	
        80.112	  5.020e-002 	             	
        80.128	             	  4.300e-001 	
        80.176	  5.010e-002 	             	
        80.192	             	  4.301e-001 	
        80.256	             	  4.301e-001 	
        80.272	  5.010e-002 	             	
        80.320	             	  4.301e-001 	
        80.336	  5.020e-002 	             	
        80.384	             	  4.301e-001 	
        80.400	  5.020e-002 	             	
        80.448	             	  4.301e-001 	
        80.464	  5.020e-002 	             	
        80.512	             	  4.301e-001 	
        80.528	  5.020e-002 	             	
        80.576	             	  4.300e-001 	
        80.592	  5.030e-002 	             	
        80.656	  5.020e-002 	             	
        80.672	             	  4.300e-001 	
        80.720	  5.030e-002 	             	
        80.736	             	  4.299e-001 	
        80.784	  5.020e-002 	             	
        80.800	             	  4.299e-001 	
        80.848	  5.020e-002 	             	
        80.864	             	  4.300e-001 	
        80.912	  5.000e-002 	             	
        80.928	             	  4.299e-001 	
        80.976	  5.000e-002 	             	
        80.992	             	  4.299e-001 	
        81.056	             	  4.298e-001 	
        81.072	  5.020e-002 	             	
        81.120	             	  4.298e-001 	
        81.136	  5.030e-002 	             	
        81.184	             	  4.297e-001 	
        81.200	  5.040e-002 	             	
        81.248	             	  4.297e-001 	
        81.264	  5.020e-002 	             	
        81.312	             	  4.297e-001 	
        81.328	  5.020e-002 	             	
        81.376	             	  4.297e-001 	
        81.392	  5.010e-002 	             	
        81.440	             	  4.296e-001 	
        81.456	  5.020e-002 	             	
        81.520	  5.010e-002 	             	
        81.536	             	  4.295e-001 	
        81.584	  5.000e-002 	             	
        81.600	             	  4.295e-001 	
        81.648	  5.020e-002 	             	
        81.664	             	  4.295e-001 	
        81.711	  5.020e-002 	             	
        81.728	             	  4.296e-001 	
        81.776	  5.050e-002 	             	
        81.792	             	  4.296e-001 	
        81.856	             	  4.296e-001 	
        81.872	  5.020e-002 	             	
        81.919	             	  4.295e-001 	
        81.936	  4.990e-002 	             	
        81.984	             	  4.295e-001 	
        82.000	  5.030e-002 	             	
        82.048	             	  4.294e-001 	
        82.064	  5.040e-002 	             	
        82.112	             	  4.293e-001 	
        82.128	  5.020e-002 	             	
        82.176	             	  4.293e-001 	
        82.192	  5.020e-002 	             	
        82.240	             	  4.294e-001 	
        82.256	  5.020e-002 	             	
        82.319	  5.050e-002 	             	
        82.336	             	  4.294e-001 	
        82.384	  5.050e-002 	             	
        82.400	             	  4.294e-001 	
        82.447	  5.050e-002 	             	
        82.463	             	  4.295e-001 	
        82.512	  5.030e-002 	             	
        82.528	             	  4.297e-001 	
        82.575	  5.020e-002 	             	
        82.591	             	  4.297e-001 	
        82.656	             	  4.298e-001 	
        82.672	  5.020e-002 	             	
        82.720	             	  4.297e-001 	
        82.735	  5.040e-002 	             	
        82.784	             	  4.297e-001 	
        82.799	  5.040e-002 	             	
        82.848	             	  4.297e-001 	
        82.863	  5.040e-002 	             	
        82.911	             	  4.297e-001 	
        82.927	  5.040e-002 	             	
        82.975	             	  4.298e-001 	
        82.992	  5.030e-002 	             	
        83.039	             	  4.298e-001 	
        83.055	  5.040e-002 	             	
        83.120	  5.020e-002 	             	
        83.135	             	  4.298e-001 	
        83.184	  5.040e-002 	             	
        83.199	             	  4.298e-001 	
        83.247	  5.040e-002 	             	
        83.264	             	  4.297e-001 	
        83.313	  5.030e-002 	             	
        83.328	             	  4.298e-001 	
        83.377	  5.040e-002 	             	
        83.392	             	  4.298e-001 	
        83.456	             	  4.297e-001 	
        83.472	  5.040e-002 	             	
        83.520	             	  4.297e-001 	
        83.536	  5.030e-002 	             	
        83.584	             	  4.297e-001 	
        83.600	  5.040e-002 	             	
        83.648	             	  4.298e-001 	
        83.664	  5.060e-002 	             	
        83.712	             	  4.298e-001 	
        83.728	  5.040e-002 	             	
        83.776	             	  4.298e-001 	
        83.793	  5.030e-002 	             	
        83.840	             	  4.298e-001 	
        83.856	  5.020e-002 	             	
        83.920	  5.040e-002 	             	
        83.936	             	  4.298e-001 	
        83.984	  5.050e-002 	             	
        84.000	             	  4.298e-001 	
        84.049	  5.050e-002 	             	
        84.064	             	  4.297e-001 	
        84.113	  5.050e-002 	             	
        84.128	             	  4.297e-001 	
        84.176	  5.030e-002 	             	
        84.192	             	  4.297e-001 	
        84.256	             	  4.298e-001 	
        84.272	  5.050e-002 	             	
        84.320	             	  4.298e-001 	
        84.336	  5.040e-002 	             	
        84.384	             	  4.299e-001 	
        84.400	  5.050e-002 	             	
        84.448	             	  4.299e-001 	
        84.464	  5.060e-002 	             	
        84.512	             	  4.299e-001 	
        84.528	  5.050e-002 	             	
        84.576	             	  4.299e-001 	
        84.592	  5.040e-002 	             	
        84.640	             	  4.300e-001 	
        84.656	  5.040e-002 	             	
        84.720	  5.050e-002 	             	
        84.736	             	  4.300e-001 	
        84.784	  5.050e-002 	             	
        84.800	             	  4.300e-001 	
        84.848	  5.030e-002 	             	
        84.864	             	  4.299e-001 	
        84.912	  5.020e-002 	             	
        84.928	             	  4.299e-001 	
        84.976	  5.060e-002 	             	
        84.992	             	  4.298e-001 	
        85.040	  5.030e-002 	             	
        85.056	             	  4.297e-001 	
        85.120	             	  4.297e-001 	
        85.136	  5.020e-002 	             	
        85.184	             	  4.297e-001 	
        85.200	  5.040e-002 	             	
        85.248	             	  4.295e-001 	
        85.264	  5.040e-002 	             	
        85.312	             	  4.294e-001 	
        85.328	  5.060e-002 	             	
        85.376	             	  4.294e-001 	
        85.392	  5.040e-002 	             	
        85.440	             	  4.294e-001 	
        85.456	  5.050e-002 	             	
        85.520	  5.040e-002 	             	
        85.536	             	  4.293e-001 	
        85.584	  5.050e-002 	             	
        85.600	             	  4.293e-001 	
        85.648	  5.050e-002 	             	
        85.664	             	  4.293e-001 	
        85.712	  5.040e-002 	             	
        85.728	             	  4.293e-001 	
        85.776	  5.040e-002 	             	
        85.792	             	  4.293e-001 	
        85.840	  5.040e-002 	             	
        85.856	             	  4.293e-001 	
        85.920	             	  4.293e-001 	
        85.936	  5.070e-002 	             	
        85.984	             	  4.293e-001 	
        86.000	  5.070e-002 	             	
        86.048	             	  4.293e-001 	
        86.064	  5.050e-002 	             	
        86.112	             	  4.293e-001 	
        86.128	  5.060e-002 	             	
        86.176	             	  4.293e-001 	
        86.192	  5.060e-002 	             	
        86.240	             	  4.293e-001 	
        86.256	  5.050e-002 	             	
        86.320	  5.050e-002 	             	
        86.336	             	  4.293e-001 	
        86.384	  5.060e-002 	             	
        86.400	             	  4.293e-001 	
        86.449	  5.050e-002 	             	
        86.464	             	  4.293e-001 	
        86.512	  5.080e-002 	             	
        86.528	             	  4.293e-001 	
        86.576	  5.070e-002 	             	
        86.592	             	  4.294e-001 	
        86.640	  5.060e-002 	             	
        86.656	             	  4.293e-001 	
        86.720	             	  4.294e-001 	
        86.736	  5.060e-002 	             	
        86.784	             	  4.293e-001 	
        86.800	  5.060e-002 	             	
        86.848	             	  4.292e-001 	
        86.864	  5.040e-002 	             	
        86.912	             	  4.292e-001 	
        86.928	  5.050e-002 	             	
        86.976	             	  4.291e-001 	
        86.992	  5.050e-002 	             	
        87.040	             	  4.290e-001 	
        87.056	  5.040e-002 	             	
        87.120	  5.060e-002 	             	
        87.136	             	  4.288e-001 	
        87.184	  5.050e-002 	             	
        87.200	             	  4.287e-001 	
        87.248	  5.050e-002 	             	
        87.264	             	  4.286e-001 	
        87.312	  5.070e-002 	             	
        87.328	             	  4.286e-001 	
        87.376	  5.080e-002 	             	
        87.392	             	  4.286e-001 	
        87.440	  5.070e-002 	             	
        87.456	             	  4.286e-001 	
        87.520	             	  4.287e-001 	
        87.536	  5.060e-002 	             	
        87.584	             	  4.288e-001 	
        87.600	  5.070e-002 	             	
        87.648	             	  4.288e-001 	
        87.664	  5.070e-002 	             	
        87.712	             	  4.288e-001 	
        87.728	  5.060e-002 	             	
        87.776	             	  4.288e-001 	
        87.792	  5.060e-002 	             	
        87.840	             	  4.287e-001 	
        87.856	  5.050e-002 	             	
        87.920	  5.060e-002 	             	
        87.936	             	  4.286e-001 	
        87.984	  5.070e-002 	             	
        88.000	             	  4.284e-001 	
        88.048	  5.070e-002 	             	
        88.064	             	  4.284e-001 	
        88.112	  5.060e-002 	             	
        88.128	             	  4.284e-001 	
        88.176	  5.060e-002 	             	
        88.192	             	  4.285e-001 	
        88.240	  5.080e-002 	             	
        88.256	             	  4.286e-001 	
        88.320	             	  4.286e-001 	
        88.336	  5.040e-002 	             	
        88.384	             	  4.285e-001 	
        88.400	  5.050e-002 	             	
        88.448	             	  4.285e-001 	
        88.464	  5.060e-002 	             	
        88.512	             	  4.284e-001 	
        88.528	  5.060e-002 	             	
        88.576	             	  4.283e-001 	
        88.592	  5.050e-002 	             	
        88.640	             	  4.283e-001 	
        88.656	  5.080e-002 	             	
        88.720	  5.050e-002 	             	
        88.736	             	  4.283e-001 	
        88.784	  5.070e-002 	             	
        88.800	             	  4.283e-001 	
        88.848	  5.070e-002 	             	
        88.864	             	  4.283e-001 	
        88.912	  5.080e-002 	             	
        88.928	             	  4.282e-001 	
        88.976	  5.070e-002 	             	
        88.992	             	  4.281e-001 	
        89.040	  5.090e-002 	             	
        89.056	             	  4.280e-001 	
        89.120	             	  4.280e-001 	
        89.136	  5.050e-002 	             	
        89.184	             	  4.280e-001 	
        89.200	  5.090e-002 	             	
        89.248	             	  4.280e-001 	
        89.264	  5.090e-002 	             	
        89.312	             	  4.280e-001 	
        89.328	  5.070e-002 	             	
        89.376	             	  4.280e-001 	
        89.392	  5.060e-002 	             	
        89.440	             	  4.281e-001 	
        89.456	  5.060e-002 	             	
        89.520	  5.050e-002 	             	
        89.536	             	  4.282e-001 	
        89.584	  5.070e-002 	             	
        89.600	             	  4.282e-001 	
        89.648	  5.070e-002 	             	
        89.664	             	  4.281e-001 	
        89.712	  5.090e-002 	             	
        89.728	             	  4.281e-001 	
        89.776	  5.100e-002 	             	
        89.792	             	  4.280e-001 	
        89.840	  5.080e-002 	             	
        89.856	             	  4.279e-001 	
        89.920	             	  4.278e-001 	
        89.936	  5.060e-002 	             	
        89.984	             	  4.278e-001 	
        90.000	  5.080e-002 	             	
        90.048	             	  4.278e-001 	
        90.064	  5.090e-002 	             	
        90.112	             	  4.277e-001 	
        90.128	  5.080e-002 	             	
        90.176	             	  4.277e-001 	
        90.192	  5.080e-002 	             	
        90.240	             	  4.277e-001 	
        90.256	  5.090e-002 	             	
        90.320	  5.070e-002 	             	
        90.336	             	  4.277e-001 	
        90.384	  5.080e-002 	             	
        90.400	             	  4.277e-001 	
        90.448	  5.070e-002 	             	
        90.464	             	  4.277e-001 	
        90.512	  5.080e-002 	             	
        90.528	             	  4.278e-001 	
        90.576	  5.080e-002 	             	
        90.592	             	  4.278e-001 	
        90.640	  5.080e-002 	             	
        90.656	             	  4.278e-001 	
        90.720	             	  4.278e-001 	
        90.736	  5.070e-002 	             	
        90.784	             	  4.278e-001 	
        90.800	  5.080e-002 	             	
        90.848	             	  4.278e-001 	
        90.864	  5.090e-002 	             	
        90.912	             	  4.278e-001 	
        90.928	  5.090e-002 	             	
        90.976	             	  4.279e-001 	
        90.992	  5.080e-002 	             	
        91.040	             	  4.278e-001 	
        91.056	  5.080e-002 	             	
        91.120	  5.090e-002 	             	
        91.136	             	  4.279e-001 	
        91.184	  5.100e-002 	             	
        91.200	             	  4.279e-001 	
        91.248	  5.090e-002 	             	
        91.264	             	  4.279e-001 	
        91.312	  5.090e-002 	             	
        91.328	             	  4.280e-001 	
        91.376	  5.080e-002 	             	
        91.392	             	  4.280e-001 	
        91.440	  5.080e-002 	             	
        91.456	             	  4.280e-001 	
        91.520	             	  4.280e-001 	
        91.536	  5.080e-002 	             	
        91.584	             	  4.280e-001 	
        91.600	  5.090e-002 	             	
        91.648	             	  4.279e-001 	
        91.664	  5.090e-002 	             	
        91.712	             	  4.278e-001 	
        91.728	  5.110e-002 	             	
        91.776	             	  4.278e-001 	
        91.792	  5.110e-002 	             	
        91.840	             	  4.279e-001 	
        91.856	  5.100e-002 	             	
        91.920	  5.090e-002 	             	
        91.936	             	  4.280e-001 	
        91.984	  5.090e-002 	             	
        92.000	             	  4.280e-001 	
        92.048	  5.100e-002 	             	
        92.064	             	  4.281e-001 	
        92.112	  5.110e-002 	             	
        92.128	             	  4.281e-001 	
        92.176	  5.100e-002 	             	
        92.192	             	  4.281e-001 	
        92.240	  5.100e-002 	             	
        92.256	             	  4.280e-001 	
        92.320	             	  4.281e-001 	
        92.336	  5.100e-002 	             	
        92.384	             	  4.282e-001 	
        92.400	  5.110e-002 	             	
        92.448	             	  4.282e-001 	
        92.464	  5.100e-002 	             	
        92.512	             	  4.282e-001 	
        92.528	  5.100e-002 	             	
        92.576	             	  4.282e-001 	
        92.592	  5.100e-002 	             	
        92.640	             	  4.282e-001 	
        92.656	  5.100e-002 	             	
        92.704	             	  4.282e-001 	
        92.720	  5.080e-002 	             	
        92.784	  5.090e-002 	             	
        92.800	             	  4.281e-001 	
        92.848	  5.110e-002 	             	
        92.864	             	  4.281e-001 	
        92.912	  5.100e-002 	             	
        92.928	             	  4.281e-001 	
        92.976	  5.110e-002 	             	
        92.992	             	  4.280e-001 	
        93.040	  5.090e-002 	             	
        93.056	             	  4.279e-001 	
        93.120	             	  4.278e-001 	
        93.136	  5.100e-002 	             	
        93.184	             	  4.277e-001 	
        93.200	  5.110e-002 	             	
        93.248	             	  4.277e-001 	
        93.264	  5.110e-002 	             	
        93.312	             	  4.276e-001 	
        93.328	  5.100e-002 	             	
        93.376	             	  4.277e-001 	
        93.392	  5.100e-002 	             	
        93.440	             	  4.277e-001 	
        93.456	  5.100e-002 	             	
        93.504	             	  4.277e-001 	
        93.520	  5.120e-002 	             	
        93.584	  5.110e-002 	             	
        93.600	             	  4.277e-001 	
        93.648	  5.090e-002 	             	
        93.664	             	  4.276e-001 	
        93.712	  5.100e-002 	             	
        93.728	             	  4.277e-001 	
        93.776	  5.110e-002 	             	
        93.792	             	  4.277e-001 	
        93.840	  5.110e-002 	             	
        93.856	             	  4.277e-001 	
        93.920	             	  4.278e-001 	
        93.936	  5.100e-002 	             	
        93.984	             	  4.279e-001 	
        94.000	  5.110e-002 	             	
        94.048	             	  4.280e-001 	
        94.064	  5.120e-002 	             	
        94.112	             	  4.280e-001 	
        94.128	  5.100e-002 	             	
        94.176	             	  4.280e-001 	
        94.192	  5.110e-002 	             	
        94.240	             	  4.280e-001 	
        94.256	  5.110e-002 	             	
        94.304	             	  4.280e-001 	
        94.320	  5.120e-002 	             	
        94.384	  5.090e-002 	             	
        94.400	             	  4.281e-001 	
        94.448	  5.120e-002 	             	
        94.464	             	  4.280e-001 	
        94.512	  5.110e-002 	             	
        94.528	             	  4.280e-001 	
        94.576	  5.100e-002 	             	
        94.592	             	  4.279e-001 	
        94.640	  5.130e-002 	             	
        94.656	             	  4.279e-001 	
        94.720	             	  4.279e-001 	
        94.736	  5.130e-002 	             	
        94.784	             	  4.279e-001 	
        94.800	  5.140e-002 	             	
        94.848	             	  4.280e-001 	
        94.864	  5.110e-002 	             	
        94.912	             	  4.281e-001 	
        94.928	  5.120e-002 	             	
        94.976	             	  4.282e-001 	
        94.992	  5.090e-002 	             	
        95.040	             	  4.282e-001 	
        95.056	  5.120e-002 	             	
        95.104	             	  4.283e-001 	
        95.120	  5.150e-002 	             	
        95.184	  5.110e-002 	             	
        95.200	             	  4.283e-001 	
        95.248	  5.120e-002 	             	
        95.264	             	  4.283e-001 	
        95.312	  5.140e-002 	             	
        95.328	             	  4.284e-001 	
        95.376	  5.120e-002 	             	
        95.392	             	  4.284e-001 	
        95.440	  5.120e-002 	             	
        95.456	             	  4.284e-001 	
        95.520	             	  4.284e-001 	
        95.536	  5.120e-002 	             	
        95.584	             	  4.284e-001 	
        95.600	  5.110e-002 	             	
        95.648	             	  4.284e-001 	
        95.664	  5.120e-002 	             	
        95.712	             	  4.284e-001 	
        95.728	  5.100e-002 	             	
        95.776	             	  4.284e-001 	
        95.792	  5.120e-002 	             	
        95.840	             	  4.284e-001 	
        95.856	  5.120e-002 	             	
        95.904	             	  4.284e-001 	
        95.920	  5.120e-002 	             	
        95.984	  5.110e-002 	             	
        96.000	             	  4.284e-001 	
        96.048	  5.140e-002 	             	
        96.064	             	  4.285e-001 	
        96.112	  5.110e-002 	             	
        96.128	             	  4.285e-001 	
        96.176	  5.120e-002 	             	
        96.192	             	  4.285e-001 	
        96.240	  5.120e-002 	             	
        96.256	             	  4.285e-001 	
        96.320	             	  4.285e-001 	
        96.336	  5.120e-002 	             	
        96.384	             	  4.285e-001 	
        96.400	  5.130e-002 	             	
        96.448	             	  4.284e-001 	
        96.464	  5.120e-002 	             	
        96.512	             	  4.284e-001 	
        96.528	  5.130e-002 	             	
        96.576	             	  4.284e-001 	
        96.592	  5.110e-002 	             	
        96.640	             	  4.285e-001 	
        96.656	  5.140e-002 	             	
        96.704	             	  4.285e-001 	
        96.720	  5.120e-002 	             	
        96.784	  5.110e-002 	             	
        96.800	             	  4.285e-001 	
        96.848	  5.130e-002 	             	
        96.864	             	  4.285e-001 	
        96.912	  5.130e-002 	             	
        96.928	             	  4.285e-001 	
        96.976	  5.140e-002 	             	
        96.992	             	  4.285e-001 	
        97.040	  5.130e-002 	             	
        97.056	             	  4.286e-001 	
        97.120	             	  4.286e-001 	
        97.136	  5.120e-002 	             	
        97.184	             	  4.286e-001 	
        97.200	  5.120e-002 	             	
        97.248	             	  4.286e-001 	
        97.264	  5.110e-002 	             	
        97.312	             	  4.286e-001 	
        97.328	  5.140e-002 	             	
        97.376	             	  4.286e-001 	
        97.392	  5.120e-002 	             	
        97.440	             	  4.286e-001 	
        97.456	  5.100e-002 	             	
        97.504	             	  4.286e-001 	
        97.520	  5.130e-002 	             	
        97.584	  5.130e-002 	             	
        97.600	             	  4.285e-001 	
        97.648	  5.110e-002 	             	
        97.664	             	  4.285e-001 	
        97.712	  5.140e-002 	             	
        97.728	             	  4.286e-001 	
        97.776	  5.140e-002 	             	
        97.792	             	  4.287e-001 	
        97.840	  5.120e-002 	             	
        97.856	             	  4.287e-001 	
        97.904	  5.130e-002 	             	
        97.920	             	  4.287e-001 	
        97.984	             	  4.286e-001 	
        98.000	  5.150e-002 	             	
        98.048	             	  4.287e-001 	
        98.064	  5.130e-002 	             	
        98.112	             	  4.286e-001 	
        98.128	  5.120e-002 	             	
        98.176	             	  4.285e-001 	
        98.192	  5.120e-002 	             	
        98.240	             	  4.284e-001 	
        98.256	  5.130e-002 	             	
        98.304	             	  4.284e-001 	
        98.320	  5.130e-002 	             	
        98.384	  5.130e-002 	             	
        98.400	             	  4.284e-001 	
        98.448	  5.110e-002 	             	
        98.464	             	  4.284e-001 	
        98.512	  5.120e-002 	             	
        98.528	             	  4.285e-001 	
        98.576	  5.140e-002 	             	
        98.592	             	  4.285e-001 	
        98.640	  5.140e-002 	             	
        98.656	             	  4.286e-001 	
        98.704	  5.120e-002 	             	
        98.720	             	  4.287e-001 	
        98.784	             	  4.287e-001 	
        98.800	  5.110e-002 	             	
        98.848	             	  4.287e-001 	
        98.864	  5.150e-002 	             	
        98.912	             	  4.287e-001 	
        98.928	  5.120e-002 	             	
        98.976	             	  4.288e-001 	
        98.992	  5.130e-002 	             	
        99.040	             	  4.289e-001 	
        99.056	  5.140e-002 	             	
        99.104	             	  4.290e-001 	
        99.120	  5.130e-002 	             	
        99.184	  5.130e-002 	             	
        99.200	             	  4.291e-001 	
        99.248	  5.150e-002 	             	
        99.263	             	  4.291e-001 	
        99.312	  5.140e-002 	             	
        99.328	             	  4.290e-001 	
        99.376	  5.120e-002 	             	
        99.392	             	  4.291e-001 	
        99.440	  5.140e-002 	             	
        99.456	             	  4.291e-001 	
        99.503	  5.120e-002 	             	
        99.520	             	  4.291e-001 	
        99.584	             	  4.291e-001 	
        99.600	  5.130e-002 	             	
        99.648	             	  4.291e-001 	
        99.664	  5.140e-002 	             	
        99.711	             	  4.290e-001 	
        99.728	  5.140e-002 	             	
        99.775	             	  4.290e-001 	
        99.792	  5.130e-002 	             	
        99.840	             	  4.290e-001 	
        99.856	  5.130e-002 	             	
        99.904	             	  4.289e-001 	
        99.920	  5.140e-002 	             	
        99.983	  5.130e-002 	             	
       100.000	             	  4.289e-001 	
       100.048	  5.120e-002 	             	
       100.064	             	  4.289e-001 	
       100.112	  5.150e-002 	             	
       100.127	             	  4.289e-001 	
       100.175	  5.140e-002 	             	
       100.192	             	  4.288e-001 	
       100.239	  5.150e-002 	             	
       100.255	             	  4.288e-001 	
       100.303	  5.140e-002 	             	
       100.319	             	  4.287e-001 	
       100.383	             	  4.287e-001 	
       100.399	  5.130e-002 	             	
       100.447	             	  4.287e-001 	
       100.463	  5.150e-002 	             	
       100.511	             	  4.288e-001 	
       100.527	  5.160e-002 	             	
       100.576	             	  4.288e-001 	
       100.591	  5.120e-002 	             	
       100.639	             	  4.289e-001 	
       100.655	  5.140e-002 	             	
       100.703	             	  4.288e-001 	
       100.719	  5.140e-002 	             	
       100.784	  5.150e-002 	             	
       100.801	             	  4.288e-001 	
       100.848	  5.150e-002 	             	
       100.864	             	  4.288e-001 	
       100.912	  5.140e-002 	             	
       100.928	             	  4.288e-001 	
       100.976	  5.140e-002 	             	
       100.992	             	  4.289e-001 	
       101.040	  5.140e-002 	             	
       101.056	             	  4.289e-001 	
       101.104	  5.150e-002 	             	
       101.121	             	  4.289e-001 	
       101.184	             	  4.289e-001 	
       101.201	  5.140e-002 	             	
       101.248	             	  4.289e-001 	
       101.264	  5.130e-002 	             	
       101.312	             	  4.289e-001 	
       101.328	  5.140e-002 	             	
       101.376	             	  4.290e-001 	
       101.392	  5.160e-002 	             	
       101.440	             	  4.290e-001 	
       101.456	  5.150e-002 	             	
       101.504	             	  4.291e-001 	
       101.520	  5.130e-002 	             	
       101.584	  5.160e-002 	             	
       101.600	             	  4.291e-001 	
       101.648	  5.160e-002 	             	
       101.664	             	  4.291e-001 	
       101.712	  5.170e-002 	             	
       101.728	             	  4.292e-001 	
       101.776	  5.150e-002 	             	
       101.792	             	  4.292e-001 	
       101.840	  5.140e-002 	             	
       101.856	             	  4.293e-001 	
       101.904	  5.180e-002 	             	
       101.920	             	  4.293e-001 	
       101.984	             	  4.293e-001 	
       102.000	  5.150e-002 	             	
       102.048	             	  4.293e-001 	
       102.064	  5.170e-002 	             	
       102.112	             	  4.293e-001 	
       102.128	  5.160e-002 	             	
       102.176	             	  4.291e-001 	
       102.192	  5.150e-002 	             	
       102.240	             	  4.290e-001 	
       102.256	  5.150e-002 	             	
       102.304	             	  4.289e-001 	
       102.320	  5.130e-002 	             	
       102.384	  5.160e-002 	             	
       102.400	             	  4.288e-001 	
       102.448	  5.140e-002 	             	
       102.464	             	  4.287e-001 	
       102.512	  5.130e-002 	             	
       102.528	             	  4.287e-001 	
       102.576	  5.150e-002 	             	
       102.592	             	  4.287e-001 	
       102.640	  5.140e-002 	             	
       102.656	             	  4.287e-001 	
       102.704	  5.140e-002 	             	
       102.720	             	  4.286e-001 	
       102.784	             	  4.286e-001 	
       102.800	  5.140e-002 	             	
       102.848	             	  4.285e-001 	
       102.864	  5.140e-002 	             	
       102.912	             	  4.285e-001 	
       102.928	  5.140e-002 	             	
       102.976	             	  4.285e-001 	
       102.992	  5.150e-002 	             	
       103.040	             	  4.284e-001 	
       103.056	  5.150e-002 	             	
       103.104	             	  4.283e-001 	
       103.120	  5.160e-002 	             	
       103.184	  5.160e-002 	             	
       103.200	             	  4.283e-001 	
       103.248	  5.160e-002 	             	
       103.264	             	  4.283e-001 	
       103.312	  5.150e-002 	             	
       103.328	             	  4.283e-001 	
       103.376	  5.160e-002 	             	
       103.392	             	  4.284e-001 	
       103.440	  5.150e-002 	             	
       103.456	             	  4.285e-001 	
       103.504	  5.140e-002 	             	
       103.520	             	  4.285e-001 	
       103.584	             	  4.285e-001 	
       103.600	  5.150e-002 	             	
       103.648	             	  4.285e-001 	
       103.664	  5.150e-002 	             	
       103.712	             	  4.285e-001 	
       103.728	  5.140e-002 	             	
       103.776	             	  4.284e-001 	
       103.792	  5.130e-002 	             	
       103.840	             	  4.283e-001 	
       103.856	  5.130e-002 	             	
       103.904	             	  4.282e-001 	
       103.920	  5.150e-002 	             	
       103.984	  5.150e-002 	             	
       104.000	             	  4.282e-001 	
       104.048	  5.150e-002 	             	
       104.064	             	  4.282e-001 	
       104.112	  5.160e-002 	             	
       104.128	             	  4.283e-001 	
       104.176	  5.150e-002 	             	
       104.192	             	  4.283e-001 	
       104.240	  5.150e-002 	             	
       104.256	             	  4.283e-001 	
       104.304	  5.140e-002 	             	
       104.320	             	  4.283e-001 	
       104.384	             	  4.283e-001 	
       104.400	  5.140e-002 	             	
       104.448	             	  4.282e-001 	
       104.464	  5.160e-002 	             	
       104.512	             	  4.282e-001 	
       104.528	  5.150e-002 	             	
       104.576	             	  4.282e-001 	
       104.592	  5.150e-002 	             	
       104.640	             	  4.283e-001 	
       104.656	  5.130e-002 	             	
       104.704	             	  4.283e-001 	
       104.720	  5.140e-002 	             	
       104.784	  5.140e-002 	             	
       104.800	             	  4.283e-001 	
       104.848	  5.140e-002 	             	
       104.864	             	  4.283e-001 	
       104.912	  5.180e-002 	             	
       104.928	             	  4.283e-001 	
       104.976	  5.150e-002 	             	
       104.992	             	  4.283e-001 	
       105.040	  5.160e-002 	             	
       105.056	             	  4.283e-001 	
       105.104	  5.140e-002 	             	
       105.120	             	  4.282e-001 	
       105.184	             	  4.281e-001 	
       105.200	  5.140e-002 	             	
       105.248	             	  4.281e-001 	
       105.264	  5.150e-002 	             	
       105.312	             	  4.280e-001 	
       105.328	  5.140e-002 	             	
       105.376	             	  4.280e-001 	
       105.392	  5.140e-002 	             	
       105.440	             	  4.280e-001 	
       105.456	  5.150e-002 	             	
       105.504	             	  4.280e-001 	
       105.520	  5.140e-002 	             	
       105.568	             	  4.279e-001 	
       105.584	  5.150e-002 	             	
       105.648	  5.150e-002 	             	
       105.664	             	  4.279e-001 	
       105.712	  5.160e-002 	             	
       105.728	             	  4.279e-001 	
       105.776	  5.160e-002 	             	
       105.792	             	  4.280e-001 	
       105.840	  5.170e-002 	             	
       105.856	             	  4.279e-001 	
       105.904	  5.160e-002 	             	
       105.920	             	  4.280e-001 	
       105.984	             	  4.280e-001 	
       106.000	  5.150e-002 	             	
       106.048	             	  4.280e-001 	
       106.064	  5.140e-002 	             	
       106.112	             	  4.281e-001 	
       106.128	  5.140e-002 	             	
       106.176	             	  4.281e-001 	
       106.192	  5.150e-002 	             	
       106.240	             	  4.281e-001 	
       106.256	  5.180e-002 	             	
       106.304	             	  4.281e-001 	
       106.320	  5.150e-002 	             	
       106.368	             	  4.280e-001 	
       106.384	  5.160e-002 	             	
       106.448	  5.140e-002 	             	
       106.464	             	  4.280e-001 	
       106.512	  5.160e-002 	             	
       106.528	             	  4.280e-001 	
       106.576	  5.160e-002 	             	
       106.592	             	  4.280e-001 	
       106.640	  5.160e-002 	             	
       106.656	             	  4.280e-001 	
       106.704	  5.150e-002 	             	
       106.720	             	  4.281e-001 	
       106.784	             	  4.281e-001 	
       106.800	  5.150e-002 	             	
       106.848	             	  4.281e-001 	
       106.864	  5.180e-002 	             	
       106.912	             	  4.281e-001 	
       106.928	  5.170e-002 	             	
       106.976	             	  4.281e-001 	
       106.992	  5.180e-002 	             	
       107.040	             	  4.281e-001 	
       107.056	  5.160e-002 	             	
       107.104	             	  4.281e-001 	
       107.120	  5.150e-002 	             	
       107.168	             	  4.281e-001 	
       107.184	  5.160e-002 	             	
       107.248	  5.160e-002 	             	
       107.264	             	  4.282e-001 	
       107.312	  5.170e-002 	             	
       107.328	             	  4.282e-001 	
       107.376	  5.170e-002 	             	
       107.392	             	  4.283e-001 	
       107.440	  5.170e-002 	             	
       107.456	             	  4.283e-001 	
       107.504	  5.150e-002 	             	
       107.520	             	  4.283e-001 	
       107.584	             	  4.283e-001 	
       107.600	  5.170e-002 	             	
       107.648	             	  4.282e-001 	
       107.664	  5.150e-002 	             	
       107.712	             	  4.282e-001 	
       107.728	  5.150e-002 	             	
       107.776	             	  4.283e-001 	
       107.792	  5.150e-002 	             	
       107.840	             	  4.283e-001 	
       107.856	  5.160e-002 	             	
       107.904	             	  4.283e-001 	
       107.920	  5.160e-002 	             	
       107.968	             	  4.282e-001 	
       107.984	  5.160e-002 	             	
       108.048	  5.170e-002 	             	
       108.064	             	  4.282e-001 	
       108.112	  5.150e-002 	             	
       108.128	             	  4.282e-001 	
       108.176	  5.170e-002 	             	
       108.192	             	  4.282e-001 	
       108.240	  5.190e-002 	             	
       108.256	             	  4.282e-001 	
       108.304	  5.190e-002 	             	
       108.320	             	  4.282e-001 	
       108.384	             	  4.282e-001 	
       108.400	  5.150e-002 	             	
       108.448	             	  4.282e-001 	
       108.464	  5.150e-002 	             	
       108.512	             	  4.282e-001 	
       108.528	  5.160e-002 	             	
       108.576	             	  4.282e-001 	
       108.592	  5.180e-002 	             	
       108.640	             	  4.281e-001 	
       108.656	  5.170e-002 	             	
       108.704	             	  4.281e-001 	
       108.720	  5.140e-002 	             	
       108.768	             	  4.281e-001 	
       108.784	  5.180e-002 	             	
       108.848	  5.180e-002 	             	
       108.864	             	  4.281e-001 	
       108.912	  5.190e-002 	             	
       108.928	             	  4.281e-001 	
       108.976	  5.170e-002 	             	
       108.992	             	  4.281e-001 	
       109.040	  5.170e-002 	             	
       109.056	             	  4.281e-001 	
       109.104	  5.170e-002 	             	
       109.120	             	  4.281e-001 	
       109.184	             	  4.282e-001 	
       109.200	  5.160e-002 	             	
       109.248	             	  4.282e-001 	
       109.264	  5.180e-002 	             	
       109.312	             	  4.282e-001 	
       109.328	  5.160e-002 	             	
       109.376	             	  4.282e-001 	
       109.392	  5.160e-002 	             	
       109.440	             	  4.282e-001 	
       109.456	  5.160e-002 	             	
       109.504	             	  4.282e-001 	
       109.520	  5.160e-002 	             	
       109.568	             	  4.281e-001 	
       109.584	  5.190e-002 	             	
       109.648	  5.150e-002 	             	
       109.664	             	  4.281e-001 	
       109.712	  5.160e-002 	             	
       109.728	             	  4.281e-001 	
       109.776	  5.170e-002 	             	
       109.792	             	  4.282e-001 	
       109.840	  5.170e-002 	             	
       109.856	             	  4.282e-001 	
       109.904	  5.180e-002 	             	
       109.920	             	  4.282e-001 	
       109.984	             	  4.282e-001 	
       110.000	  5.160e-002 	             	
       110.048	             	  4.283e-001 	
       110.064	  5.170e-002 	             	
       110.112	             	  4.284e-001 	
       110.128	  5.180e-002 	             	
       110.176	             	  4.285e-001 	
       110.192	  5.180e-002 	             	
       110.240	             	  4.284e-001 	
       110.256	  5.170e-002 	             	
       110.304	             	  4.284e-001 	
       110.320	  5.190e-002 	             	
       110.368	             	  4.283e-001 	
       110.384	  5.190e-002 	             	
       110.448	  5.170e-002 	             	
       110.464	             	  4.283e-001 	
       110.512	  5.180e-002 	             	
       110.528	             	  4.283e-001 	
       110.576	  5.200e-002 	             	
       110.592	             	  4.283e-001 	
       110.640	  5.180e-002 	             	
       110.656	             	  4.284e-001 	
       110.704	  5.200e-002 	             	
       110.720	             	  4.285e-001 	
       110.784	             	  4.287e-001 	
       110.800	  5.170e-002 	             	
       110.848	             	  4.288e-001 	
       110.864	  5.170e-002 	             	
       110.912	             	  4.289e-001 	
       110.928	  5.170e-002 	             	
       110.976	             	  4.290e-001 	
       110.992	  5.180e-002 	             	
       111.040	             	  4.290e-001 	
       111.056	  5.190e-002 	             	
       111.104	             	  4.290e-001 	
       111.120	  5.190e-002 	             	
       111.168	             	  4.289e-001 	
       111.184	  5.180e-002 	             	
       111.248	  5.190e-002 	             	
       111.264	             	  4.289e-001 	
       111.312	  5.170e-002 	             	
       111.328	             	  4.288e-001 	
       111.376	  5.180e-002 	             	
       111.392	             	  4.288e-001 	
       111.440	  5.170e-002 	             	
       111.456	             	  4.287e-001 	
       111.504	  5.190e-002 	             	
       111.520	             	  4.286e-001 	
       111.568	  5.160e-002 	             	
       111.584	             	  4.285e-001 	
       111.648	             	  4.285e-001 	
       111.664	  5.170e-002 	             	
       111.712	             	  4.285e-001 	
       111.728	  5.170e-002 	             	
       111.776	             	  4.285e-001 	
       111.792	  5.180e-002 	             	
       111.840	             	  4.285e-001 	
       111.856	  5.170e-002 	             	
       111.904	             	  4.285e-001 	
       111.920	  5.180e-002 	             	
       111.968	             	  4.285e-001 	
       111.984	  5.180e-002 	             	
       112.048	  5.180e-002 	             	
       112.064	             	  4.285e-001 	
       112.112	  5.180e-002 	             	
       112.128	             	  4.285e-001 	
       112.176	  5.170e-002 	             	
       112.192	             	  4.286e-001 	
       112.240	  5.180e-002 	             	
       112.256	             	  4.287e-001 	
       112.304	  5.160e-002 	             	
       112.320	             	  4.289e-001 	
       112.368	  5.170e-002 	             	
       112.384	             	  4.290e-001 	
       112.448	             	  4.290e-001 	
       112.464	  5.170e-002 	             	
       112.512	             	  4.290e-001 	
       112.528	  5.170e-002 	             	
       112.576	             	  4.289e-001 	
       112.592	  5.170e-002 	             	
       112.640	             	  4.288e-001 	
       112.656	  5.180e-002 	             	
       112.704	             	  4.288e-001 	
       112.720	  5.170e-002 	             	
       112.768	             	  4.287e-001 	
       112.784	  5.160e-002 	             	
       112.848	  5.170e-002 	             	
       112.864	             	  4.287e-001 	
       112.912	  5.180e-002 	             	
       112.928	             	  4.287e-001 	
       112.976	  5.180e-002 	             	
       112.992	             	  4.288e-001 	
       113.040	  5.200e-002 	             	
       113.056	             	  4.288e-001 	
       113.104	  5.190e-002 	             	
       113.120	             	  4.289e-001 	
       113.168	  5.180e-002 	             	
       113.184	             	  4.290e-001 	
       113.248	             	  4.290e-001 	
       113.264	  5.170e-002 	             	
       113.312	             	  4.291e-001 	
       113.328	  5.160e-002 	             	
       113.376	             	  4.292e-001 	
       113.392	  5.190e-002 	             	
       113.440	             	  4.292e-001 	
       113.456	  5.180e-002 	             	
       113.504	             	  4.292e-001 	
       113.520	  5.190e-002 	             	
       113.568	             	  4.292e-001 	
       113.584	  5.200e-002 	             	
       113.648	  5.200e-002 	             	
       113.664	             	  4.293e-001 	
       113.712	  5.160e-002 	             	
       113.728	             	  4.294e-001 	
       113.776	  5.190e-002 	             	
       113.792	             	  4.294e-001 	
       113.840	  5.170e-002 	             	
       113.856	             	  4.295e-001 	
       113.904	  5.200e-002 	             	
       113.920	             	  4.295e-001 	
       113.968	  5.170e-002 	             	
       113.984	             	  4.295e-001 	
       114.048	             	  4.295e-001 	
       114.064	  5.170e-002 	             	
       114.112	             	  4.296e-001 	
       114.128	  5.160e-002 	             	
       114.176	             	  4.297e-001 	
       114.192	  5.190e-002 	             	
       114.240	             	  4.297e-001 	
       114.256	  5.190e-002 	             	
       114.304	             	  4.296e-001 	
       114.320	  5.180e-002 	             	
       114.368	             	  4.295e-001 	
       114.384	  5.180e-002 	             	
       114.448	  5.180e-002 	             	
       114.464	             	  4.295e-001 	
       114.512	  5.170e-002 	             	
       114.528	             	  4.294e-001 	
       114.576	  5.170e-002 	             	
       114.592	             	  4.293e-001 	
       114.640	  5.170e-002 	             	
       114.656	             	  4.293e-001 	
       114.704	  5.170e-002 	             	
       114.720	             	  4.292e-001 	
       114.768	  5.190e-002 	             	
       114.784	             	  4.292e-001 	
       114.848	             	  4.292e-001 	
       114.864	  5.170e-002 	             	
       114.912	             	  4.293e-001 	
       114.928	  5.170e-002 	             	
       114.976	             	  4.294e-001 	
       114.992	  5.180e-002 	             	
       115.040	             	  4.294e-001 	
       115.056	  5.180e-002 	             	
       115.104	             	  4.294e-001 	
       115.120	  5.160e-002 	             	
       115.168	             	  4.294e-001 	
       115.184	  5.170e-002 	             	
       115.248	  5.180e-002 	             	
       115.264	             	  4.293e-001 	
       115.312	  5.160e-002 	             	
       115.328	             	  4.293e-001 	
       115.376	  5.170e-002 	             	
       115.392	             	  4.292e-001 	
       115.440	  5.180e-002 	             	
       115.456	             	  4.293e-001 	
       115.504	  5.180e-002 	             	
       115.520	             	  4.293e-001 	
       115.568	  5.180e-002 	             	
       115.584	             	  4.293e-001 	
       115.648	             	  4.294e-001 	
       115.664	  5.150e-002 	             	
       115.712	             	  4.295e-001 	
       115.728	  5.190e-002 	             	
       115.776	             	  4.295e-001 	
       115.792	  5.180e-002 	             	
       115.840	             	  4.295e-001 	
       115.856	  5.190e-002 	             	
       115.904	             	  4.295e-001 	
       115.920	  5.170e-002 	             	
       115.968	             	  4.296e-001 	
       115.984	  5.200e-002 	             	
       116.048	  5.190e-002 	             	
       116.064	             	  4.296e-001 	
       116.112	  5.200e-002 	             	
       116.128	             	  4.296e-001 	
       116.176	  5.170e-002 	             	
       116.192	             	  4.297e-001 	
       116.240	  5.190e-002 	             	
       116.256	             	  4.297e-001 	
       116.304	  5.170e-002 	             	
       116.320	             	  4.297e-001 	
       116.368	  5.180e-002 	             	
       116.384	             	  4.297e-001 	
       116.448	             	  4.297e-001 	
       116.463	  5.190e-002 	             	
       116.512	             	  4.296e-001 	
       116.528	  5.180e-002 	             	
       116.576	             	  4.296e-001 	
       116.592	  5.180e-002 	             	
       116.640	             	  4.295e-001 	
       116.656	  5.180e-002 	             	
       116.704	             	  4.295e-001 	
       116.719	  5.150e-002 	             	
       116.768	             	  4.295e-001 	
       116.784	  5.170e-002 	             	
       116.848	  5.180e-002 	             	
       116.864	             	  4.295e-001 	
       116.912	  5.180e-002 	             	
       116.928	             	  4.295e-001 	
       116.976	  5.170e-002 	             	
       116.992	             	  4.294e-001 	
       117.040	  5.180e-002 	             	
       117.056	             	  4.294e-001 	
       117.103	  5.170e-002 	             	
       117.120	             	  4.294e-001 	
       117.168	  5.180e-002 	             	
       117.184	             	  4.294e-001 	
       117.248	             	  4.294e-001 	
       117.263	  5.190e-002 	             	
       117.312	             	  4.293e-001 	
       117.328	  5.180e-002 	             	
       117.376	             	  4.292e-001 	
       117.391	  5.180e-002 	             	
       117.440	             	  4.291e-001 	
       117.456	  5.170e-002 	             	
       117.504	             	  4.291e-001 	
       117.519	  5.190e-002 	             	
       117.567	             	  4.291e-001 	
       117.583	  5.170e-002 	             	
       117.647	  5.180e-002 	             	
       117.663	             	  4.290e-001 	
       117.712	  5.170e-002 	             	
       117.727	             	  4.291e-001 	
       117.775	  5.170e-002 	             	
       117.791	             	  4.292e-001 	
       117.839	  5.170e-002 	             	
       117.855	             	  4.292e-001 	
       117.903	  5.190e-002 	             	
       117.919	             	  4.293e-001 	
       117.967	  5.190e-002 	             	
       117.983	             	  4.293e-001 	
       118.047	             	  4.293e-001 	
       118.063	  5.160e-002 	             	
       118.111	             	  4.293e-001 	
       118.127	  5.160e-002 	             	
       118.175	             	  4.293e-001 	
       118.191	  5.170e-002 	             	
       118.240	             	  4.293e-001 	
       118.256	  5.180e-002 	             	
       118.304	             	  4.292e-001 	
       118.320	  5.170e-002 	             	
       118.369	             	  4.292e-001 	
       118.384	  5.160e-002 	             	
       118.448	  5.180e-002 	             	
       118.464	             	  4.292e-001 	
       118.512	  5.190e-002 	             	
       118.528	             	  4.291e-001 	
       118.576	  5.170e-002 	             	
       118.592	             	  4.292e-001 	
       118.640	  5.200e-002 	             	
       118.656	             	  4.292e-001 	
       118.705	  5.200e-002 	             	
       118.720	             	  4.291e-001 	
       118.768	  5.180e-002 	             	
       118.784	             	  4.292e-001 	
       118.848	             	  4.292e-001 	
       118.864	  5.180e-002 	             	
       118.912	             	  4.293e-001 	
       118.928	  5.150e-002 	             	
       118.976	             	  4.293e-001 	
       118.992	  5.180e-002 	             	
       119.040	             	  4.292e-001 	
       119.056	  5.170e-002 	             	
       119.105	             	  4.291e-001 	
       119.120	  5.170e-002 	             	
       119.168	             	  4.291e-001 	
       119.184	  5.180e-002 	             	
       119.232	             	  4.291e-001 	
       119.248	  5.170e-002 	             	
       119.312	  5.170e-002 	             	
       119.329	             	  4.290e-001 	
       119.376	  5.170e-002 	             	
       119.392	             	  4.290e-001 	
       119.440	  5.190e-002 	             	
       119.456	             	  4.289e-001 	
       119.504	  5.170e-002 	             	
       119.520	             	  4.288e-001 	
       119.568	  5.180e-002 	             	
       119.584	             	  4.289e-001 	
       119.648	             	  4.289e-001 	
       119.664	  5.170e-002 	             	
       119.712	             	  4.289e-001 	
       119.728	  5.180e-002 	             	
       119.776	             	  4.290e-001 	
       119.792	  5.160e-002 	             	
       119.840	             	  4.291e-001 	
       119.856	  5.180e-002 	             	
       119.904	             	  4.291e-001 	
       119.920	  5.170e-002 	             	
       119.968	             	  4.291e-001 	
       119.984	  5.180e-002 	             	
       120.032	             	  4.291e-001 	
       120.048	  5.180e-002 	             	
       120.112	  5.170e-002 	             	
       120.128	             	  4.291e-001 	
       120.176	  5.170e-002 	             	
       120.192	             	  4.291e-001 	
       120.240	  5.170e-002 	             	
       120.256	             	  4.291e-001 	
       120.304	  5.180e-002 	             	
       120.320	             	  4.291e-001 	
       120.368	  5.170e-002 	             	
       120.384	             	  4.290e-001 	
       120.448	             	  4.290e-001 	
       120.464	  5.170e-002 	             	
       120.512	             	  4.290e-001 	
       120.528	  5.170e-002 	             	
       120.576	             	  4.290e-001 	
       120.592	  5.170e-002 	             	
       120.640	             	  4.290e-001 	
       120.656	  5.170e-002 	             	
       120.704	             	  4.290e-001 	
       120.720	  5.190e-002 	             	
       120.768	             	  4.289e-001 	
       120.784	  5.160e-002 	             	
       120.832	             	  4.289e-001 	
       120.848	  5.180e-002 	             	
       120.912	  5.160e-002 	             	
       120.928	             	  4.289e-001 	
       120.976	  5.170e-002 	             	
       120.992	             	  4.288e-001 	
       121.040	  5.170e-002 	             	
       121.056	             	  4.288e-001 	
       121.104	  5.170e-002 	             	
       121.120	             	  4.288e-001 	
       121.168	  5.170e-002 	             	
       121.184	             	  4.288e-001 	
       121.248	             	  4.288e-001 	
       121.264	  5.170e-002 	             	
       121.312	             	  4.289e-001 	
       121.328	  5.160e-002 	             	
       121.376	             	  4.289e-001 	
       121.392	  5.190e-002 	             	
       121.440	             	  4.288e-001 	
       121.456	  5.170e-002 	             	
       121.504	             	  4.288e-001 	
       121.520	  5.170e-002 	             	
       121.568	             	  4.287e-001 	
       121.584	  5.180e-002 	             	
       121.632	             	  4.287e-001 	
       121.648	  5.200e-002 	             	
       121.712	  5.180e-002 	             	
       121.728	             	  4.288e-001 	
       121.776	  5.190e-002 	             	
       121.792	             	  4.288e-001 	
       121.840	  5.170e-002 	             	
       121.856	             	  4.289e-001 	
       121.904	  5.160e-002 	             	
       121.920	             	  4.289e-001 	
       121.968	  5.170e-002 	             	
       121.984	             	  4.290e-001 	
       122.048	             	  4.290e-001 	
       122.064	  5.160e-002 	             	
       122.112	             	  4.289e-001 	
       122.128	  5.180e-002 	             	
       122.176	             	  4.289e-001 	
       122.192	  5.190e-002 	             	
       122.240	             	  4.289e-001 	
       122.256	  5.150e-002 	             	
       122.304	             	  4.289e-001 	
       122.320	  5.170e-002 	             	
       122.368	             	  4.289e-001 	
       122.384	  5.180e-002 	             	
       122.432	             	  4.290e-001 	
       122.448	  5.170e-002 	             	
       122.512	  5.160e-002 	             	
       122.528	             	  4.290e-001 	
       122.576	  5.200e-002 	             	
       122.592	             	  4.289e-001 	
       122.640	  5.180e-002 	             	
       122.656	             	  4.288e-001 	
       122.704	  5.200e-002 	             	
       122.720	             	  4.288e-001 	
       122.768	  5.200e-002 	             	
       122.784	             	  4.289e-001 	
       122.848	             	  4.289e-001 	
       122.864	  5.190e-002 	             	
       122.912	             	  4.290e-001 	
       122.928	  5.190e-002 	             	
       122.976	             	  4.291e-001 	
       122.992	  5.170e-002 	             	
       123.040	             	  4.292e-001 	
       123.056	  5.170e-002 	             	
       123.104	             	  4.293e-001 	
       123.120	  5.160e-002 	             	
       123.168	             	  4.294e-001 	
       123.184	  5.190e-002 	             	
       123.232	             	  4.294e-001 	
       123.248	  5.180e-002 	             	
       123.312	  5.180e-002 	             	
       123.328	             	  4.294e-001 	
       123.376	  5.170e-002 	             	
       123.392	             	  4.294e-001 	
       123.440	  5.160e-002 	             	
       123.456	             	  4.294e-001 	
       123.504	  5.180e-002 	             	
       123.520	             	  4.293e-001 	
       123.568	  5.170e-002 	             	
       123.584	             	  4.292e-001 	
       123.648	             	  4.292e-001 	
       123.664	  5.180e-002 	             	
       123.712	             	  4.292e-001 	
       123.728	  5.160e-002 	             	
       123.776	             	  4.292e-001 	
       123.792	  5.180e-002 	             	
       123.840	             	  4.291e-001 	
       123.856	  5.160e-002 	             	
       123.904	             	  4.291e-001 	
       123.920	  5.170e-002 	             	
       123.968	             	  4.290e-001 	
       123.984	  5.170e-002 	             	
       124.032	             	  4.291e-001 	
       124.048	  5.180e-002 	             	
       124.112	  5.180e-002 	             	
       124.128	             	  4.291e-001 	
       124.176	  5.180e-002 	             	
       124.192	             	  4.292e-001 	
       124.240	  5.180e-002 	             	
       124.256	             	  4.292e-001 	
       124.304	  5.180e-002 	             	
       124.320	             	  4.293e-001 	
       124.368	  5.170e-002 	             	
       124.384	             	  4.293e-001 	
       124.432	  5.170e-002 	             	
       124.448	             	  4.294e-001 	
       124.512	             	  4.294e-001 	
       124.528	  5.160e-002 	             	
       124.576	             	  4.294e-001 	
       124.592	  5.170e-002 	             	
       124.640	             	  4.294e-001 	
       124.656	  5.170e-002 	             	
       124.704	             	  4.295e-001 	
       124.720	  5.180e-002 	             	
       124.768	             	  4.295e-001 	
       124.784	  5.170e-002 	             	
       124.832	             	  4.295e-001 	
       124.848	  5.170e-002 	             	
       124.912	  5.180e-002 	             	
       124.928	             	  4.296e-001 	
       124.976	  5.190e-002 	             	
       124.992	             	  4.297e-001 	
       125.040	  5.180e-002 	             	
       125.056	             	  4.298e-001 	
       125.104	  5.170e-002 	             	
       125.120	             	  4.299e-001 	
       125.168	  5.160e-002 	             	
       125.184	             	  4.299e-001 	
       125.232	  5.170e-002 	             	
       125.248	             	  4.300e-001 	
       125.312	             	  4.301e-001 	
       125.328	  5.160e-002 	             	
       125.376	             	  4.301e-001 	
       125.392	  5.150e-002 	             	
       125.440	             	  4.301e-001 	
       125.456	  5.180e-002 	             	
       125.504	             	  4.300e-001 	
       125.520	  5.180e-002 	             	
       125.568	             	  4.299e-001 	
       125.584	  5.140e-002 	             	
       125.632	             	  4.299e-001 	
       125.648	  5.160e-002 	             	
       125.712	  5.150e-002 	             	
       125.728	             	  4.299e-001 	
       125.776	  5.180e-002 	             	
       125.792	             	  4.299e-001 	
       125.840	  5.150e-002 	             	
       125.856	             	  4.299e-001 	
       125.904	  5.140e-002 	             	
       125.920	             	  4.299e-001 	
       125.968	  5.160e-002 	             	
       125.984	             	  4.299e-001 	
       126.032	  5.160e-002 	             	
       126.048	             	  4.299e-001 	
       126.112	             	  4.298e-001 	
       126.128	  5.170e-002 	             	
       126.176	             	  4.299e-001 	
       126.192	  5.170e-002 	             	
       126.240	             	  4.299e-001 	
       126.256	  5.160e-002 	             	
       126.304	             	  4.299e-001 	
       126.320	  5.170e-002 	             	
       126.368	             	  4.299e-001 	
       126.384	  5.150e-002 	             	
       126.432	             	  4.300e-001 	
       126.448	  5.160e-002 	             	
       126.512	  5.170e-002 	             	
       126.528	             	  4.299e-001 	
       126.576	  5.170e-002 	             	
       126.592	             	  4.300e-001 	
       126.640	  5.180e-002 	             	
       126.656	             	  4.299e-001 	
       126.704	  5.170e-002 	             	
       126.720	             	  4.299e-001 	
       126.768	  5.180e-002 	             	
       126.784	             	  4.299e-001 	
       126.832	  5.180e-002 	             	
       126.848	             	  4.299e-001 	
       126.912	             	  4.301e-001 	
       126.928	  5.170e-002 	             	
       126.976	             	  4.301e-001 	
       126.992	  5.180e-002 	             	
       127.040	             	  4.302e-001 	
       127.056	  5.160e-002 	             	
       127.104	             	  4.302e-001 	
       127.120	  5.160e-002 	             	
       127.168	             	  4.303e-001 	
       127.184	  5.170e-002 	             	
       127.232	             	  4.303e-001 	
       127.248	  5.160e-002 	             	
       127.312	  5.160e-002 	             	
       127.328	             	  4.303e-001 	
       127.376	  5.160e-002 	             	
       127.392	             	  4.303e-001 	
       127.440	  5.170e-002 	             	
       127.456	             	  4.304e-001 	
       127.504	  5.160e-002 	             	
       127.520	             	  4.304e-001 	
       127.568	  5.150e-002 	             	
       127.584	             	  4.305e-001 	
       127.632	  5.160e-002 	             	
       127.648	             	  4.306e-001 	
       127.712	             	  4.306e-001 	
       127.728	  5.160e-002 	             	
       127.776	             	  4.307e-001 	
       127.792	  5.160e-002 	             	
       127.840	             	  4.307e-001 	
       127.856	  5.170e-002 	             	
       127.904	             	  4.307e-001 	
       127.920	  5.160e-002 	             	
       127.968	             	  4.307e-001 	
       127.984	  5.150e-002 	             	
       128.032	             	  4.307e-001 	
       128.048	  5.160e-002 	             	
       128.112	  5.150e-002 	             	
       128.128	             	  4.306e-001 	
       128.176	  5.160e-002 	             	
       128.192	             	  4.305e-001 	
       128.240	  5.150e-002 	             	
       128.256	             	  4.305e-001 	
       128.304	  5.130e-002 	             	
       128.320	             	  4.305e-001 	
       128.368	  5.150e-002 	             	
       128.384	             	  4.304e-001 	
       128.432	  5.150e-002 	             	
       128.448	             	  4.303e-001 	
       128.512	             	  4.303e-001 	
       128.528	  5.160e-002 	             	
       128.576	             	  4.303e-001 	
       128.592	  5.160e-002 	             	
       128.640	             	  4.303e-001 	
       128.656	  5.160e-002 	             	
       128.704	             	  4.303e-001 	
       128.720	  5.160e-002 	             	
       128.768	             	  4.303e-001 	
       128.784	  5.150e-002 	             	
       128.832	             	  4.303e-001 	
       128.848	  5.160e-002 	             	
       128.912	  5.140e-002 	             	
       128.928	             	  4.303e-001 	
       128.976	  5.150e-002 	             	
       128.992	             	  4.303e-001 	
       129.040	  5.140e-002 	             	
       129.056	             	  4.303e-001 	
       129.104	  5.120e-002 	             	
       129.120	             	  4.303e-001 	
       129.168	  5.150e-002 	             	
       129.184	             	  4.303e-001 	
       129.232	  5.140e-002 	             	
       129.248	             	  4.303e-001 	
       129.312	             	  4.302e-001 	
       129.328	  5.150e-002 	             	
       129.376	             	  4.302e-001 	
       129.392	  5.140e-002 	             	
       129.440	             	  4.301e-001 	
       129.456	  5.160e-002 	             	
       129.504	             	  4.301e-001 	
       129.520	  5.170e-002 	             	
       129.568	             	  4.301e-001 	
       129.584	  5.160e-002 	             	
       129.632	             	  4.301e-001 	
       129.648	  5.160e-002 	             	
       129.712	  5.140e-002 	             	
       129.728	             	  4.302e-001 	
       129.776	  5.140e-002 	             	
       129.792	             	  4.302e-001 	
       129.840	  5.150e-002 	             	
       129.856	             	  4.302e-001 	
       129.904	  5.140e-002 	             	
       129.920	             	  4.301e-001 	
       129.968	  5.160e-002 	             	
       129.984	             	  4.300e-001 	
       130.032	  5.150e-002 	             	
       130.048	             	  4.299e-001 	
       130.112	             	  4.300e-001 	
       130.128	  5.140e-002 	             	
       130.176	             	  4.300e-001 	
       130.192	  5.150e-002 	             	
       130.240	             	  4.300e-001 	
       130.256	  5.150e-002 	             	
       130.304	             	  4.300e-001 	
       130.320	  5.160e-002 	             	
       130.368	             	  4.300e-001 	
       130.384	  5.140e-002 	             	
       130.432	             	  4.299e-001 	
       130.448	  5.150e-002 	             	
       130.512	  5.130e-002 	             	
       130.528	             	  4.299e-001 	
       130.576	  5.150e-002 	             	
       130.592	             	  4.299e-001 	
       130.640	  5.150e-002 	             	
       130.656	             	  4.299e-001 	
       130.704	  5.140e-002 	             	
       130.720	             	  4.299e-001 	
       130.768	  5.150e-002 	             	
       130.784	             	  4.300e-001 	
       130.832	  5.150e-002 	             	
       130.848	             	  4.301e-001 	
       130.912	             	  4.301e-001 	
       130.928	  5.150e-002 	             	
       130.976	             	  4.301e-001 	
       130.992	  5.130e-002 	             	
       131.040	             	  4.300e-001 	
       131.056	  5.150e-002 	             	
       131.104	             	  4.299e-001 	
       131.120	  5.160e-002 	             	
       131.168	             	  4.299e-001 	
       131.184	  5.140e-002 	             	
       131.232	             	  4.299e-001 	
       131.248	  5.170e-002 	             	
       131.296	             	  4.299e-001 	
       131.312	  5.160e-002 	             	
       131.376	  5.150e-002 	             	
       131.392	             	  4.300e-001 	
       131.440	  5.150e-002 	             	
       131.456	             	  4.300e-001 	
       131.504	  5.150e-002 	             	
       131.520	             	  4.300e-001 	
       131.568	  5.130e-002 	             	
       131.584	             	  4.300e-001 	
       131.632	  5.140e-002 	             	
       131.648	             	  4.301e-001 	
       131.712	             	  4.301e-001 	
       131.728	  5.150e-002 	             	
       131.776	             	  4.302e-001 	
       131.792	  5.150e-002 	             	
       131.840	             	  4.302e-001 	
       131.856	  5.150e-002 	             	
       131.904	             	  4.302e-001 	
       131.920	  5.140e-002 	             	
       131.968	             	  4.302e-001 	
       131.984	  5.150e-002 	             	
       132.032	             	  4.302e-001 	
       132.048	  5.150e-002 	             	
       132.096	             	  4.302e-001 	
       132.112	  5.150e-002 	             	
       132.176	  5.160e-002 	             	
       132.192	             	  4.302e-001 	
       132.240	  5.180e-002 	             	
       132.256	             	  4.302e-001 	
       132.304	  5.150e-002 	             	
       132.320	             	  4.302e-001 	
       132.368	  5.130e-002 	             	
       132.384	             	  4.302e-001 	
       132.432	  5.160e-002 	             	
       132.448	             	  4.302e-001 	
       132.512	             	  4.303e-001 	
       132.528	  5.160e-002 	             	
       132.576	             	  4.302e-001 	
       132.592	  5.140e-002 	             	
       132.640	             	  4.302e-001 	
       132.656	  5.150e-002 	             	
       132.704	             	  4.302e-001 	
       132.720	  5.140e-002 	             	
       132.768	             	  4.303e-001 	
       132.784	  5.140e-002 	             	
       132.832	             	  4.303e-001 	
       132.848	  5.150e-002 	             	
       132.896	             	  4.303e-001 	
       132.912	  5.140e-002 	             	
       132.976	  5.120e-002 	             	
       132.992	             	  4.302e-001 	
       133.040	  5.140e-002 	             	
       133.056	             	  4.302e-001 	
       133.104	  5.160e-002 	             	
       133.120	             	  4.301e-001 	
       133.168	  5.150e-002 	             	
       133.184	             	  4.301e-001 	
       133.232	  5.140e-002 	             	
       133.248	             	  4.300e-001 	
       133.312	             	  4.300e-001 	
       133.328	  5.140e-002 	             	
       133.376	             	  4.299e-001 	
       133.392	  5.140e-002 	             	
       133.440	             	  4.299e-001 	
       133.456	  5.150e-002 	             	
       133.504	             	  4.299e-001 	
       133.520	  5.140e-002 	             	
       133.568	             	  4.299e-001 	
       133.584	  5.150e-002 	             	
       133.632	             	  4.300e-001 	
       133.648	  5.140e-002 	             	
       133.696	             	  4.300e-001 	
       133.712	  5.140e-002 	             	
       133.776	  5.130e-002 	             	
       133.792	             	  4.300e-001 	
       133.840	  5.140e-002 	             	
       133.856	             	  4.300e-001 	
       133.904	  5.140e-002 	             	
       133.920	             	  4.299e-001 	
       133.968	  5.140e-002 	             	
       133.984	             	  4.299e-001 	
       134.032	  5.150e-002 	             	
       134.047	             	  4.299e-001 	
       134.112	             	  4.299e-001 	
       134.128	  5.140e-002 	             	
       134.176	             	  4.299e-001 	
       134.192	  5.160e-002 	             	
       134.240	             	  4.299e-001 	
       134.256	  5.140e-002 	             	
       134.304	             	  4.299e-001 	
       134.320	  5.160e-002 	             	
       134.368	             	  4.300e-001 	
       134.384	  5.150e-002 	             	
       134.432	             	  4.300e-001 	
       134.448	  5.160e-002 	             	
       134.495	             	  4.301e-001 	
       134.512	  5.150e-002 	             	
       134.576	  5.170e-002 	             	
       134.592	             	  4.301e-001 	
       134.640	  5.150e-002 	             	
       134.656	             	  4.302e-001 	
       134.703	  5.140e-002 	             	
       134.720	             	  4.303e-001 	
       134.767	  5.150e-002 	             	
       134.783	             	  4.304e-001 	
       134.832	  5.120e-002 	             	
       134.848	             	  4.304e-001 	
       134.912	             	  4.305e-001 	
       134.927	  5.140e-002 	             	
       134.976	             	  4.305e-001 	
       134.991	  5.160e-002 	             	
       135.039	             	  4.304e-001 	
       135.056	  5.170e-002 	             	
       135.103	             	  4.303e-001 	
       135.119	  5.150e-002 	             	
       135.168	             	  4.302e-001 	
       135.184	  5.160e-002 	             	
       135.231	             	  4.303e-001 	
       135.247	  5.170e-002 	             	
       135.296	             	  4.303e-001 	
       135.311	  5.140e-002 	             	
       135.376	  5.160e-002 	             	
       135.391	             	  4.304e-001 	
       135.439	  5.150e-002 	             	
       135.455	             	  4.304e-001 	
       135.504	  5.140e-002 	             	
       135.519	             	  4.304e-001 	
       135.568	  5.150e-002 	             	
       135.583	             	  4.304e-001 	
       135.631	  5.140e-002 	             	
       135.647	             	  4.305e-001 	
       135.711	             	  4.305e-001 	
       135.728	  5.160e-002 	             	
       135.776	             	  4.304e-001 	
       135.792	  5.140e-002 	             	
       135.840	             	  4.303e-001 	
       135.856	  5.150e-002 	             	
       135.904	             	  4.303e-001 	
       135.920	  5.150e-002 	             	
       135.968	             	  4.302e-001 	
       135.984	  5.160e-002 	             	
       136.032	             	  4.302e-001 	
       136.048	  5.150e-002 	             	
       136.096	             	  4.301e-001 	
       136.112	  5.150e-002 	             	
       136.176	  5.120e-002 	             	
       136.192	             	  4.301e-001 	
       136.240	  5.150e-002 	             	
       136.257	             	  4.301e-001 	
       136.304	  5.150e-002 	             	
       136.320	             	  4.300e-001 	
       136.369	  5.150e-002 	             	
       136.384	             	  4.299e-001 	
       136.432	  5.150e-002 	             	
       136.448	             	  4.298e-001 	
       136.512	             	  4.298e-001 	
       136.528	  5.140e-002 	             	
       136.576	             	  4.298e-001 	
       136.592	  5.140e-002 	             	
       136.640	             	  4.298e-001 	
       136.656	  5.130e-002 	             	
       136.704	             	  4.298e-001 	
       136.720	  5.120e-002 	             	
       136.768	             	  4.298e-001 	
       136.784	  5.150e-002 	             	
       136.832	             	  4.298e-001 	
       136.848	  5.150e-002 	             	
       136.896	             	  4.299e-001 	
       136.912	  5.140e-002 	             	
       136.976	  5.130e-002 	             	
       136.992	             	  4.299e-001 	
       137.040	  5.130e-002 	             	
       137.056	             	  4.299e-001 	
       137.104	  5.160e-002 	             	
       137.120	             	  4.299e-001 	
       137.168	  5.130e-002 	             	
       137.184	             	  4.298e-001 	
       137.232	  5.140e-002 	             	
       137.249	             	  4.297e-001 	
       137.296	  5.120e-002 	             	
       137.312	             	  4.297e-001 	
       137.376	             	  4.296e-001 	
       137.392	  5.150e-002 	             	
       137.440	             	  4.296e-001 	
       137.456	  5.130e-002 	             	
       137.504	             	  4.297e-001 	
       137.520	  5.150e-002 	             	
       137.568	             	  4.297e-001 	
       137.584	  5.140e-002 	             	
       137.632	             	  4.297e-001 	
       137.648	  5.130e-002 	             	
       137.696	             	  4.298e-001 	
       137.712	  5.150e-002 	             	
       137.776	  5.150e-002 	             	
       137.792	             	  4.298e-001 	
       137.840	  5.150e-002 	             	
       137.856	             	  4.299e-001 	
       137.904	  5.150e-002 	             	
       137.920	             	  4.300e-001 	
       137.968	  5.130e-002 	             	
       137.984	             	  4.300e-001 	
       138.032	  5.150e-002 	             	
       138.048	             	  4.299e-001 	
       138.112	             	  4.299e-001 	
       138.128	  5.110e-002 	             	
       138.176	             	  4.300e-001 	
       138.192	  5.140e-002 	             	
       138.240	             	  4.300e-001 	
       138.256	  5.120e-002 	             	
       138.304	             	  4.300e-001 	
       138.320	  5.120e-002 	             	
       138.368	             	  4.300e-001 	
       138.384	  5.150e-002 	             	
       138.432	             	  4.299e-001 	
       138.448	  5.160e-002 	             	
       138.496	             	  4.298e-001 	
       138.512	  5.130e-002 	             	
       138.576	  5.120e-002 	             	
       138.592	             	  4.298e-001 	
       138.640	  5.130e-002 	             	
       138.656	             	  4.298e-001 	
       138.704	  5.130e-002 	             	
       138.720	             	  4.298e-001 	
       138.768	  5.110e-002 	             	
       138.784	             	  4.298e-001 	
       138.832	  5.150e-002 	             	
       138.848	             	  4.297e-001 	
       138.896	  5.130e-002 	             	
       138.912	             	  4.296e-001 	
       138.976	             	  4.295e-001 	
       138.992	  5.140e-002 	             	
       139.040	             	  4.294e-001 	
       139.056	  5.130e-002 	             	
       139.104	             	  4.293e-001 	
       139.120	  5.140e-002 	             	
       139.168	             	  4.294e-001 	
       139.184	  5.120e-002 	             	
       139.232	             	  4.294e-001 	
       139.248	  5.140e-002 	             	
       139.296	             	  4.295e-001 	
       139.312	  5.140e-002 	             	
       139.376	  5.130e-002 	             	
       139.392	             	  4.295e-001 	
       139.440	  5.150e-002 	             	
       139.456	             	  4.296e-001 	
       139.504	  5.140e-002 	             	
       139.520	             	  4.296e-001 	
       139.568	  5.130e-002 	             	
       139.584	             	  4.296e-001 	
       139.632	  5.120e-002 	             	
       139.648	             	  4.296e-001 	
       139.696	  5.120e-002 	             	
       139.712	             	  4.297e-001 	
       139.776	             	  4.297e-001 	
       139.792	  5.150e-002 	             	
       139.840	             	  4.297e-001 	
       139.856	  5.130e-002 	             	
       139.904	             	  4.297e-001 	
       139.920	  5.150e-002 	             	
       139.968	             	  4.296e-001 	
       139.984	  5.140e-002 	             	
       140.032	             	  4.296e-001 	
       140.048	  5.140e-002 	             	
       140.096	             	  4.297e-001 	
       140.112	  5.160e-002 	             	
       140.176	  5.130e-002 	             	
       140.192	             	  4.296e-001 	
       140.240	  5.140e-002 	             	
       140.256	             	  4.296e-001 	
       140.304	  5.150e-002 	             	
       140.320	             	  4.296e-001 	
       140.368	  5.150e-002 	             	
       140.384	             	  4.296e-001 	
       140.432	  5.140e-002 	             	
       140.448	             	  4.296e-001 	
       140.496	  5.120e-002 	             	
       140.512	             	  4.297e-001 	
       140.576	             	  4.297e-001 	
       140.592	  5.160e-002 	             	
       140.640	             	  4.297e-001 	
       140.656	  5.150e-002 	             	
       140.704	             	  4.297e-001 	
       140.720	  5.140e-002 	             	
       140.768	             	  4.297e-001 	
       140.784	  5.130e-002 	             	
       140.832	             	  4.297e-001 	
       140.848	  5.140e-002 	             	
       140.896	             	  4.297e-001 	
       140.912	  5.150e-002 	             	
       140.976	  5.140e-002 	             	
       140.992	             	  4.298e-001 	
       141.040	  5.150e-002 	             	
       141.056	             	  4.297e-001 	
       141.104	  5.140e-002 	             	
       141.120	             	  4.297e-001 	
       141.168	  5.140e-002 	             	
       141.184	             	  4.297e-001 	
       141.232	  5.110e-002 	             	
       141.248	             	  4.297e-001 	
       141.296	  5.130e-002 	             	
       141.312	             	  4.297e-001 	
       141.376	             	  4.296e-001 	
       141.392	  5.130e-002 	             	
       141.440	             	  4.296e-001 	
       141.456	  5.150e-002 	             	
       141.504	             	  4.296e-001 	
       141.520	  5.150e-002 	             	
       141.568	             	  4.296e-001 	
       141.584	  5.160e-002 	             	
       141.632	             	  4.297e-001 	
       141.648	  5.150e-002 	             	
       141.696	             	  4.297e-001 	
       141.712	  5.130e-002 	             	
       141.776	  5.130e-002 	             	
       141.792	             	  4.297e-001 	
       141.840	  5.130e-002 	             	
       141.856	             	  4.298e-001 	
       141.904	  5.130e-002 	             	
       141.920	             	  4.297e-001 	
       141.968	  5.130e-002 	             	
       141.984	             	  4.296e-001 	
       142.032	  5.130e-002 	             	
       142.048	             	  4.296e-001 	
       142.096	  5.140e-002 	             	
       142.112	             	  4.296e-001 	
       142.176	             	  4.296e-001 	
       142.192	  5.130e-002 	             	
       142.240	             	  4.297e-001 	
       142.256	  5.130e-002 	             	
       142.304	             	  4.297e-001 	
       142.320	  5.130e-002 	             	
       142.368	             	  4.297e-001 	
       142.384	  5.120e-002 	             	
       142.432	             	  4.297e-001 	
       142.448	  5.140e-002 	             	
       142.496	             	  4.297e-001 	
       142.512	  5.110e-002 	             	
       142.576	  5.150e-002 	             	
       142.592	             	  4.296e-001 	
       142.640	  5.150e-002 	             	
       142.656	             	  4.296e-001 	
       142.704	  5.130e-002 	             	
       142.720	             	  4.296e-001 	
       142.768	  5.140e-002 	             	
       142.784	             	  4.295e-001 	
       142.832	  5.140e-002 	             	
       142.848	             	  4.296e-001 	
       142.896	  5.140e-002 	             	
       142.912	             	  4.296e-001 	
       142.976	             	  4.296e-001 	
       142.992	  5.120e-002 	             	
       143.040	             	  4.297e-001 	
       143.056	  5.150e-002 	             	
       143.104	             	  4.297e-001 	
       143.120	  5.140e-002 	             	
       143.168	             	  4.296e-001 	
       143.184	  5.140e-002 	             	
       143.232	             	  4.296e-001 	
       143.248	  5.140e-002 	             	
       143.296	             	  4.296e-001 	
       143.312	  5.130e-002 	             	
       143.376	  5.130e-002 	             	
       143.392	             	  4.295e-001 	
       143.440	  5.120e-002 	             	
       143.456	             	  4.295e-001 	
       143.504	  5.150e-002 	             	
       143.520	             	  4.294e-001 	
       143.568	  5.130e-002 	             	
       143.584	             	  4.294e-001 	
       143.632	  5.150e-002 	             	
       143.648	             	  4.295e-001 	
       143.696	  5.140e-002 	             	
       143.712	             	  4.295e-001 	
