;PC Software:StarLab Version 2.10 Build 25
;Logged:20/09/2022 at 15:42:49
;File Version:3
;Graph Type:Line
;Notes:                                                            

;Channel A:Nova II Photodiode PD300-3W-v1 (s/n:763106)  NN2.52 (s/n:767396)
;Channel B:Vega Thermopile 10A-V1.1 (s/n:693380)  VG2.44 (s/n:858327)

;Channel A:Details
;Name:PD300-3W-v1
;Graph Color:RGB(0,102,255)
;Units:W
;Settings:Measuring:Power
;Settings:Wavelength:1064
;Settings:Range:AUTO
;Settings:Filter:IN

;Channel B:Details
;Name:10A-V1.1
;Graph Color:RGB(154,0,0)
;Units:W
;Settings:Measuring:Power
;Settings:Laser:.8-6
;Settings:Range:AUTO
;--------------------


;First Pulse Arrived : 20/09/2022 at 15:42:50.040000
  Timestamp   	  Channel A  	  Channel B  	
         0.000	  7.470e-002 	             	
         0.035	             	  4.625e-001 	
         0.064	  7.440e-002 	             	
         0.099	             	  4.625e-001 	
         0.128	  7.430e-002 	             	
         0.163	             	  4.625e-001 	
         0.192	  7.440e-002 	             	
         0.227	             	  4.625e-001 	
         0.256	  7.440e-002 	             	
         0.291	             	  4.625e-001 	
         0.320	  7.470e-002 	             	
         0.354	             	  4.625e-001 	
         0.384	  7.450e-002 	             	
         0.419	             	  4.625e-001 	
         0.448	  7.440e-002 	             	
         0.483	             	  4.625e-001 	
         0.544	  7.440e-002 	             	
         0.546	             	  4.625e-001 	
         0.608	  7.420e-002 	             	
         0.611	             	  4.625e-001 	
         0.672	  7.470e-002 	             	
         0.707	             	  4.624e-001 	
         0.736	  7.450e-002 	             	
         0.771	             	  4.624e-001 	
         0.800	  7.450e-002 	             	
         0.835	             	  4.624e-001 	
         0.864	  7.440e-002 	             	
         0.898	             	  4.624e-001 	
         0.928	  7.450e-002 	             	
         0.963	             	  4.623e-001 	
         0.992	  7.460e-002 	             	
         1.027	             	  4.623e-001 	
         1.056	  7.450e-002 	             	
         1.091	             	  4.623e-001 	
         1.120	  7.450e-002 	             	
         1.155	             	  4.623e-001 	
         1.184	  7.440e-002 	             	
         1.219	             	  4.624e-001 	
         1.248	  7.470e-002 	             	
         1.282	             	  4.624e-001 	
         1.344	  7.430e-002 	             	
         1.346	             	  4.624e-001 	
         1.408	  7.430e-002 	             	
         1.411	             	  4.625e-001 	
         1.472	  7.440e-002 	             	
         1.507	             	  4.626e-001 	
         1.536	  7.420e-002 	             	
         1.570	             	  4.627e-001 	
         1.600	  7.440e-002 	             	
         1.635	             	  4.628e-001 	
         1.664	  7.480e-002 	             	
         1.698	             	  4.628e-001 	
         1.728	  7.480e-002 	             	
         1.762	             	  4.628e-001 	
         1.792	  7.430e-002 	             	
         1.826	             	  4.628e-001 	
         1.856	  7.440e-002 	             	
         1.890	             	  4.627e-001 	
         1.920	  7.470e-002 	             	
         1.955	             	  4.627e-001 	
         1.984	  7.470e-002 	             	
         2.018	             	  4.627e-001 	
         2.048	  7.480e-002 	             	
         2.082	             	  4.627e-001 	
         2.144	  7.450e-002 	             	
         2.146	             	  4.627e-001 	
         2.208	  7.450e-002 	             	
         2.210	             	  4.628e-001 	
         2.272	  7.430e-002 	             	
         2.306	             	  4.628e-001 	
         2.336	  7.450e-002 	             	
         2.370	             	  4.629e-001 	
         2.400	  7.440e-002 	             	
         2.434	             	  4.629e-001 	
         2.464	  7.470e-002 	             	
         2.498	             	  4.629e-001 	
         2.528	  7.460e-002 	             	
         2.562	             	  4.629e-001 	
         2.592	  7.460e-002 	             	
         2.626	             	  4.628e-001 	
         2.655	  7.470e-002 	             	
         2.690	             	  4.627e-001 	
         2.720	  7.440e-002 	             	
         2.754	             	  4.627e-001 	
         2.784	  7.450e-002 	             	
         2.819	             	  4.626e-001 	
         2.848	  7.430e-002 	             	
         2.882	             	  4.626e-001 	
         2.944	  7.440e-002 	             	
         2.946	             	  4.625e-001 	
         3.008	  7.460e-002 	             	
         3.010	             	  4.625e-001 	
         3.072	  7.460e-002 	             	
         3.106	             	  4.625e-001 	
         3.136	  7.500e-002 	             	
         3.170	             	  4.625e-001 	
         3.200	  7.470e-002 	             	
         3.234	             	  4.625e-001 	
         3.264	  7.480e-002 	             	
         3.298	             	  4.625e-001 	
         3.328	  7.500e-002 	             	
         3.362	             	  4.626e-001 	
         3.392	  7.480e-002 	             	
         3.426	             	  4.626e-001 	
         3.456	  7.480e-002 	             	
         3.490	             	  4.626e-001 	
         3.520	  7.500e-002 	             	
         3.554	             	  4.627e-001 	
         3.583	  7.490e-002 	             	
         3.618	             	  4.627e-001 	
         3.648	  7.490e-002 	             	
         3.682	             	  4.628e-001 	
         3.744	  7.470e-002 	             	
         3.746	             	  4.628e-001 	
         3.807	  7.490e-002 	             	
         3.810	             	  4.628e-001 	
         3.871	  7.460e-002 	             	
         3.906	             	  4.628e-001 	
         3.935	  7.480e-002 	             	
         3.970	             	  4.628e-001 	
         3.999	  7.480e-002 	             	
         4.034	             	  4.628e-001 	
         4.063	  7.480e-002 	             	
         4.098	             	  4.628e-001 	
         4.127	  7.500e-002 	             	
         4.162	             	  4.628e-001 	
         4.191	  7.460e-002 	             	
         4.226	             	  4.628e-001 	
         4.255	  7.460e-002 	             	
         4.290	             	  4.628e-001 	
         4.319	  7.470e-002 	             	
         4.354	             	  4.628e-001 	
         4.383	  7.480e-002 	             	
         4.418	             	  4.627e-001 	
         4.447	  7.480e-002 	             	
         4.482	             	  4.626e-001 	
         4.543	  7.470e-002 	             	
         4.546	             	  4.625e-001 	
         4.607	  7.490e-002 	             	
         4.610	             	  4.624e-001 	
         4.671	  7.470e-002 	             	
         4.706	             	  4.623e-001 	
         4.736	  7.480e-002 	             	
         4.770	             	  4.623e-001 	
         4.800	  7.500e-002 	             	
         4.834	             	  4.624e-001 	
         4.863	  7.460e-002 	             	
         4.898	             	  4.624e-001 	
         4.927	  7.490e-002 	             	
         4.962	             	  4.624e-001 	
         4.991	  7.510e-002 	             	
         5.026	             	  4.625e-001 	
         5.055	  7.510e-002 	             	
         5.090	             	  4.625e-001 	
         5.119	  7.470e-002 	             	
         5.154	             	  4.626e-001 	
         5.183	  7.490e-002 	             	
         5.218	             	  4.626e-001 	
         5.247	  7.470e-002 	             	
         5.282	             	  4.627e-001 	
         5.343	  7.470e-002 	             	
         5.346	             	  4.627e-001 	
         5.407	  7.450e-002 	             	
         5.410	             	  4.627e-001 	
         5.471	  7.470e-002 	             	
         5.506	             	  4.628e-001 	
         5.535	  7.500e-002 	             	
         5.570	             	  4.627e-001 	
         5.599	  7.490e-002 	             	
         5.634	             	  4.627e-001 	
         5.663	  7.500e-002 	             	
         5.698	             	  4.626e-001 	
         5.727	  7.490e-002 	             	
         5.762	             	  4.626e-001 	
         5.791	  7.450e-002 	             	
         5.826	             	  4.626e-001 	
         5.855	  7.490e-002 	             	
         5.890	             	  4.626e-001 	
         5.919	  7.500e-002 	             	
         5.954	             	  4.626e-001 	
         5.983	  7.440e-002 	             	
         6.018	             	  4.626e-001 	
         6.047	  7.500e-002 	             	
         6.082	             	  4.626e-001 	
         6.143	  7.460e-002 	             	
         6.146	             	  4.625e-001 	
         6.207	  7.470e-002 	             	
         6.210	             	  4.624e-001 	
         6.271	  7.480e-002 	             	
         6.306	             	  4.624e-001 	
         6.335	  7.490e-002 	             	
         6.370	             	  4.623e-001 	
         6.399	  7.480e-002 	             	
         6.434	             	  4.624e-001 	
         6.463	  7.490e-002 	             	
         6.498	             	  4.624e-001 	
         6.527	  7.470e-002 	             	
         6.562	             	  4.624e-001 	
         6.591	  7.470e-002 	             	
         6.626	             	  4.624e-001 	
         6.655	  7.500e-002 	             	
         6.690	             	  4.625e-001 	
         6.719	  7.460e-002 	             	
         6.755	             	  4.625e-001 	
         6.784	  7.460e-002 	             	
         6.819	             	  4.624e-001 	
         6.848	  7.470e-002 	             	
         6.883	             	  4.624e-001 	
         6.944	  7.470e-002 	             	
         6.947	             	  4.623e-001 	
         7.008	  7.490e-002 	             	
         7.011	             	  4.622e-001 	
         7.072	  7.490e-002 	             	
         7.107	             	  4.623e-001 	
         7.136	  7.460e-002 	             	
         7.171	             	  4.622e-001 	
         7.200	  7.500e-002 	             	
         7.235	             	  4.622e-001 	
         7.264	  7.480e-002 	             	
         7.299	             	  4.622e-001 	
         7.328	  7.490e-002 	             	
         7.363	             	  4.623e-001 	
         7.392	  7.480e-002 	             	
         7.427	             	  4.624e-001 	
         7.456	  7.500e-002 	             	
         7.491	             	  4.625e-001 	
         7.520	  7.480e-002 	             	
         7.555	             	  4.625e-001 	
         7.584	  7.490e-002 	             	
         7.619	             	  4.626e-001 	
         7.648	  7.500e-002 	             	
         7.683	             	  4.626e-001 	
         7.744	  7.460e-002 	             	
         7.747	             	  4.626e-001 	
         7.808	  7.460e-002 	             	
         7.811	             	  4.625e-001 	
         7.872	  7.460e-002 	             	
         7.875	             	  4.625e-001 	
         7.936	  7.520e-002 	             	
         7.971	             	  4.625e-001 	
         8.000	  7.510e-002 	             	
         8.035	             	  4.627e-001 	
         8.064	  7.500e-002 	             	
         8.099	             	  4.627e-001 	
         8.128	  7.490e-002 	             	
         8.163	             	  4.627e-001 	
         8.192	  7.510e-002 	             	
         8.227	             	  4.626e-001 	
         8.256	  7.490e-002 	             	
         8.291	             	  4.626e-001 	
         8.320	  7.510e-002 	             	
         8.355	             	  4.625e-001 	
         8.384	  7.500e-002 	             	
         8.419	             	  4.626e-001 	
         8.448	  7.480e-002 	             	
         8.483	             	  4.626e-001 	
         8.512	  7.510e-002 	             	
         8.547	             	  4.627e-001 	
         8.608	  7.480e-002 	             	
         8.611	             	  4.627e-001 	
         8.672	  7.480e-002 	             	
         8.675	             	  4.627e-001 	
         8.736	  7.460e-002 	             	
         8.771	             	  4.626e-001 	
         8.800	  7.490e-002 	             	
         8.835	             	  4.626e-001 	
         8.864	  7.490e-002 	             	
         8.899	             	  4.625e-001 	
         8.928	  7.500e-002 	             	
         8.963	             	  4.624e-001 	
         8.992	  7.480e-002 	             	
         9.027	             	  4.624e-001 	
         9.056	  7.500e-002 	             	
         9.091	             	  4.624e-001 	
         9.120	  7.490e-002 	             	
         9.155	             	  4.625e-001 	
         9.184	  7.510e-002 	             	
         9.219	             	  4.625e-001 	
         9.248	  7.500e-002 	             	
         9.283	             	  4.625e-001 	
         9.312	  7.480e-002 	             	
         9.347	             	  4.624e-001 	
         9.408	  7.470e-002 	             	
         9.411	             	  4.624e-001 	
         9.472	  7.480e-002 	             	
         9.475	             	  4.624e-001 	
         9.536	  7.470e-002 	             	
         9.571	             	  4.624e-001 	
         9.600	  7.500e-002 	             	
         9.635	             	  4.623e-001 	
         9.664	  7.500e-002 	             	
         9.699	             	  4.622e-001 	
         9.728	  7.500e-002 	             	
         9.763	             	  4.623e-001 	
         9.792	  7.500e-002 	             	
         9.827	             	  4.623e-001 	
         9.856	  7.500e-002 	             	
         9.891	             	  4.624e-001 	
         9.920	  7.480e-002 	             	
         9.955	             	  4.624e-001 	
         9.984	  7.470e-002 	             	
        10.019	             	  4.626e-001 	
        10.048	  7.480e-002 	             	
        10.083	             	  4.627e-001 	
        10.112	  7.490e-002 	             	
        10.147	             	  4.627e-001 	
        10.208	  7.490e-002 	             	
        10.211	             	  4.628e-001 	
        10.272	  7.490e-002 	             	
        10.275	             	  4.628e-001 	
        10.336	  7.490e-002 	             	
        10.371	             	  4.627e-001 	
        10.400	  7.490e-002 	             	
        10.435	             	  4.627e-001 	
        10.465	  7.490e-002 	             	
        10.499	             	  4.626e-001 	
        10.528	  7.480e-002 	             	
        10.563	             	  4.625e-001 	
        10.592	  7.500e-002 	             	
        10.627	             	  4.624e-001 	
        10.656	  7.520e-002 	             	
        10.691	             	  4.624e-001 	
        10.720	  7.480e-002 	             	
        10.755	             	  4.624e-001 	
        10.784	  7.520e-002 	             	
        10.819	             	  4.624e-001 	
        10.848	  7.510e-002 	             	
        10.883	             	  4.624e-001 	
        10.912	  7.530e-002 	             	
        10.947	             	  4.624e-001 	
        11.008	  7.480e-002 	             	
        11.011	             	  4.624e-001 	
        11.072	  7.480e-002 	             	
        11.075	             	  4.624e-001 	
        11.136	  7.540e-002 	             	
        11.171	             	  4.623e-001 	
        11.200	  7.480e-002 	             	
        11.235	             	  4.623e-001 	
        11.264	  7.520e-002 	             	
        11.299	             	  4.623e-001 	
        11.328	  7.490e-002 	             	
        11.363	             	  4.624e-001 	
        11.392	  7.510e-002 	             	
        11.427	             	  4.624e-001 	
        11.456	  7.480e-002 	             	
        11.491	             	  4.624e-001 	
        11.520	  7.490e-002 	             	
        11.555	             	  4.625e-001 	
        11.584	  7.460e-002 	             	
        11.619	             	  4.626e-001 	
        11.648	  7.470e-002 	             	
        11.683	             	  4.626e-001 	
        11.712	  7.500e-002 	             	
        11.747	             	  4.626e-001 	
        11.808	  7.510e-002 	             	
        11.811	             	  4.626e-001 	
        11.872	  7.520e-002 	             	
        11.875	             	  4.625e-001 	
        11.936	  7.510e-002 	             	
        11.971	             	  4.625e-001 	
        12.000	  7.480e-002 	             	
        12.035	             	  4.626e-001 	
        12.064	  7.510e-002 	             	
        12.099	             	  4.626e-001 	
        12.128	  7.520e-002 	             	
        12.163	             	  4.625e-001 	
        12.192	  7.490e-002 	             	
        12.227	             	  4.625e-001 	
        12.256	  7.520e-002 	             	
        12.291	             	  4.625e-001 	
        12.320	  7.520e-002 	             	
        12.355	             	  4.625e-001 	
        12.384	  7.460e-002 	             	
        12.419	             	  4.625e-001 	
        12.448	  7.540e-002 	             	
        12.483	             	  4.625e-001 	
        12.512	  7.540e-002 	             	
        12.547	             	  4.626e-001 	
        12.608	  7.490e-002 	             	
        12.611	             	  4.626e-001 	
        12.672	  7.510e-002 	             	
        12.675	             	  4.627e-001 	
        12.736	  7.500e-002 	             	
        12.771	             	  4.628e-001 	
        12.800	  7.480e-002 	             	
        12.835	             	  4.627e-001 	
        12.864	  7.480e-002 	             	
        12.899	             	  4.627e-001 	
        12.928	  7.480e-002 	             	
        12.963	             	  4.626e-001 	
        12.992	  7.490e-002 	             	
        13.027	             	  4.625e-001 	
        13.056	  7.510e-002 	             	
        13.091	             	  4.625e-001 	
        13.120	  7.510e-002 	             	
        13.155	             	  4.625e-001 	
        13.184	  7.480e-002 	             	
        13.219	             	  4.624e-001 	
        13.248	  7.520e-002 	             	
        13.283	             	  4.624e-001 	
        13.312	  7.490e-002 	             	
        13.347	             	  4.623e-001 	
        13.408	  7.540e-002 	             	
        13.411	             	  4.623e-001 	
        13.472	  7.530e-002 	             	
        13.475	             	  4.623e-001 	
        13.536	  7.530e-002 	             	
        13.571	             	  4.623e-001 	
        13.600	  7.550e-002 	             	
        13.635	             	  4.623e-001 	
        13.664	  7.530e-002 	             	
        13.699	             	  4.623e-001 	
        13.728	  7.520e-002 	             	
        13.763	             	  4.623e-001 	
        13.792	  7.530e-002 	             	
        13.827	             	  4.623e-001 	
        13.856	  7.510e-002 	             	
        13.891	             	  4.623e-001 	
        13.920	  7.550e-002 	             	
        13.955	             	  4.624e-001 	
        13.984	  7.530e-002 	             	
        14.019	             	  4.624e-001 	
        14.048	  7.520e-002 	             	
        14.083	             	  4.624e-001 	
        14.112	  7.520e-002 	             	
        14.147	             	  4.624e-001 	
        14.208	  7.470e-002 	             	
        14.211	             	  4.623e-001 	
        14.272	  7.500e-002 	             	
        14.275	             	  4.622e-001 	
        14.336	  7.540e-002 	             	
        14.371	             	  4.621e-001 	
        14.400	  7.500e-002 	             	
        14.435	             	  4.621e-001 	
        14.464	  7.510e-002 	             	
        14.499	             	  4.621e-001 	
        14.528	  7.500e-002 	             	
        14.563	             	  4.622e-001 	
        14.592	  7.510e-002 	             	
        14.627	             	  4.622e-001 	
        14.656	  7.490e-002 	             	
        14.691	             	  4.622e-001 	
        14.720	  7.520e-002 	             	
        14.755	             	  4.622e-001 	
        14.784	  7.520e-002 	             	
        14.819	             	  4.621e-001 	
        14.848	  7.550e-002 	             	
        14.883	             	  4.621e-001 	
        14.912	  7.520e-002 	             	
        14.947	             	  4.621e-001 	
        15.008	  7.520e-002 	             	
        15.011	             	  4.620e-001 	
        15.072	  7.530e-002 	             	
        15.075	             	  4.620e-001 	
        15.136	  7.530e-002 	             	
        15.171	             	  4.620e-001 	
        15.200	  7.530e-002 	             	
        15.235	             	  4.619e-001 	
        15.264	  7.510e-002 	             	
        15.299	             	  4.619e-001 	
        15.328	  7.530e-002 	             	
        15.363	             	  4.618e-001 	
        15.392	  7.530e-002 	             	
        15.427	             	  4.618e-001 	
        15.456	  7.510e-002 	             	
        15.491	             	  4.617e-001 	
        15.520	  7.520e-002 	             	
        15.555	             	  4.617e-001 	
        15.584	  7.540e-002 	             	
        15.619	             	  4.617e-001 	
        15.648	  7.530e-002 	             	
        15.683	             	  4.617e-001 	
        15.712	  7.530e-002 	             	
        15.747	             	  4.617e-001 	
        15.808	  7.530e-002 	             	
        15.811	             	  4.617e-001 	
        15.872	  7.510e-002 	             	
        15.875	             	  4.617e-001 	
        15.936	  7.480e-002 	             	
        15.971	             	  4.618e-001 	
        16.000	  7.510e-002 	             	
        16.035	             	  4.619e-001 	
        16.064	  7.510e-002 	             	
        16.099	             	  4.620e-001 	
        16.128	  7.500e-002 	             	
        16.163	             	  4.620e-001 	
        16.192	  7.530e-002 	             	
        16.227	             	  4.621e-001 	
        16.256	  7.540e-002 	             	
        16.291	             	  4.621e-001 	
        16.320	  7.550e-002 	             	
        16.355	             	  4.621e-001 	
        16.384	  7.510e-002 	             	
        16.419	             	  4.620e-001 	
        16.448	  7.540e-002 	             	
        16.483	             	  4.620e-001 	
        16.512	  7.540e-002 	             	
        16.547	             	  4.620e-001 	
        16.608	  7.530e-002 	             	
        16.611	             	  4.620e-001 	
        16.672	  7.510e-002 	             	
        16.675	             	  4.621e-001 	
        16.736	  7.540e-002 	             	
        16.771	             	  4.621e-001 	
        16.800	  7.480e-002 	             	
        16.835	             	  4.621e-001 	
        16.864	  7.500e-002 	             	
        16.899	             	  4.620e-001 	
        16.928	  7.490e-002 	             	
        16.963	             	  4.620e-001 	
        16.992	  7.530e-002 	             	
        17.027	             	  4.619e-001 	
        17.056	  7.490e-002 	             	
        17.091	             	  4.618e-001 	
        17.120	  7.520e-002 	             	
        17.155	             	  4.618e-001 	
        17.184	  7.530e-002 	             	
        17.219	             	  4.618e-001 	
        17.248	  7.510e-002 	             	
        17.283	             	  4.619e-001 	
        17.312	  7.490e-002 	             	
        17.347	             	  4.620e-001 	
        17.408	  7.520e-002 	             	
        17.411	             	  4.620e-001 	
        17.472	  7.510e-002 	             	
        17.475	             	  4.621e-001 	
        17.536	  7.480e-002 	             	
        17.571	             	  4.620e-001 	
        17.600	  7.510e-002 	             	
        17.635	             	  4.620e-001 	
        17.664	  7.520e-002 	             	
        17.699	             	  4.620e-001 	
        17.728	  7.510e-002 	             	
        17.763	             	  4.620e-001 	
        17.792	  7.500e-002 	             	
        17.827	             	  4.621e-001 	
        17.856	  7.510e-002 	             	
        17.891	             	  4.621e-001 	
        17.920	  7.530e-002 	             	
        17.955	             	  4.621e-001 	
        17.984	  7.520e-002 	             	
        18.019	             	  4.622e-001 	
        18.048	  7.510e-002 	             	
        18.083	             	  4.622e-001 	
        18.112	  7.520e-002 	             	
        18.147	             	  4.623e-001 	
        18.208	  7.460e-002 	             	
        18.211	             	  4.624e-001 	
        18.272	  7.510e-002 	             	
        18.275	             	  4.624e-001 	
        18.336	  7.530e-002 	             	
        18.371	             	  4.624e-001 	
        18.400	  7.540e-002 	             	
        18.435	             	  4.624e-001 	
        18.464	  7.520e-002 	             	
        18.499	             	  4.623e-001 	
        18.528	  7.530e-002 	             	
        18.563	             	  4.623e-001 	
        18.592	  7.530e-002 	             	
        18.626	             	  4.622e-001 	
        18.656	  7.530e-002 	             	
        18.691	             	  4.622e-001 	
        18.720	  7.530e-002 	             	
        18.755	             	  4.622e-001 	
        18.784	  7.520e-002 	             	
        18.819	             	  4.621e-001 	
        18.848	  7.520e-002 	             	
        18.883	             	  4.621e-001 	
        18.912	  7.520e-002 	             	
        18.947	             	  4.620e-001 	
        19.008	  7.540e-002 	             	
        19.011	             	  4.620e-001 	
        19.072	  7.490e-002 	             	
        19.074	             	  4.619e-001 	
        19.136	  7.550e-002 	             	
        19.170	             	  4.620e-001 	
        19.200	  7.550e-002 	             	
        19.234	             	  4.620e-001 	
        19.264	  7.510e-002 	             	
        19.298	             	  4.620e-001 	
        19.328	  7.500e-002 	             	
        19.362	             	  4.621e-001 	
        19.392	  7.510e-002 	             	
        19.426	             	  4.622e-001 	
        19.456	  7.520e-002 	             	
        19.490	             	  4.623e-001 	
        19.520	  7.530e-002 	             	
        19.554	             	  4.623e-001 	
        19.584	  7.510e-002 	             	
        19.618	             	  4.622e-001 	
        19.648	  7.550e-002 	             	
        19.682	             	  4.622e-001 	
        19.712	  7.520e-002 	             	
        19.746	             	  4.622e-001 	
        19.808	  7.530e-002 	             	
        19.810	             	  4.622e-001 	
        19.872	  7.530e-002 	             	
        19.874	             	  4.622e-001 	
        19.935	  7.510e-002 	             	
        19.971	             	  4.621e-001 	
        20.000	  7.520e-002 	             	
        20.034	             	  4.621e-001 	
        20.064	  7.480e-002 	             	
        20.098	             	  4.620e-001 	
        20.128	  7.530e-002 	             	
        20.162	             	  4.620e-001 	
        20.192	  7.520e-002 	             	
        20.226	             	  4.620e-001 	
        20.256	  7.530e-002 	             	
        20.290	             	  4.619e-001 	
        20.320	  7.530e-002 	             	
        20.354	             	  4.619e-001 	
        20.384	  7.560e-002 	             	
        20.418	             	  4.618e-001 	
        20.448	  7.520e-002 	             	
        20.482	             	  4.617e-001 	
        20.512	  7.560e-002 	             	
        20.546	             	  4.617e-001 	
        20.607	  7.540e-002 	             	
        20.610	             	  4.616e-001 	
        20.672	  7.490e-002 	             	
        20.674	             	  4.617e-001 	
        20.736	  7.500e-002 	             	
        20.738	             	  4.617e-001 	
        20.800	  7.560e-002 	             	
        20.834	             	  4.617e-001 	
        20.864	  7.540e-002 	             	
        20.898	             	  4.617e-001 	
        20.927	  7.550e-002 	             	
        20.962	             	  4.618e-001 	
        20.992	  7.540e-002 	             	
        21.026	             	  4.619e-001 	
        21.056	  7.530e-002 	             	
        21.090	             	  4.619e-001 	
        21.120	  7.520e-002 	             	
        21.154	             	  4.620e-001 	
        21.184	  7.540e-002 	             	
        21.218	             	  4.619e-001 	
        21.247	  7.500e-002 	             	
        21.282	             	  4.619e-001 	
        21.311	  7.550e-002 	             	
        21.346	             	  4.619e-001 	
        21.408	  7.540e-002 	             	
        21.410	             	  4.619e-001 	
        21.471	  7.530e-002 	             	
        21.474	             	  4.618e-001 	
        21.536	  7.520e-002 	             	
        21.538	             	  4.618e-001 	
        21.600	  7.520e-002 	             	
        21.634	             	  4.619e-001 	
        21.663	  7.530e-002 	             	
        21.698	             	  4.618e-001 	
        21.728	  7.540e-002 	             	
        21.762	             	  4.618e-001 	
        21.791	  7.540e-002 	             	
        21.826	             	  4.617e-001 	
        21.855	  7.540e-002 	             	
        21.890	             	  4.617e-001 	
        21.919	  7.540e-002 	             	
        21.954	             	  4.616e-001 	
        21.983	  7.560e-002 	             	
        22.018	             	  4.616e-001 	
        22.047	  7.560e-002 	             	
        22.082	             	  4.616e-001 	
        22.111	  7.560e-002 	             	
        22.146	             	  4.616e-001 	
        22.175	  7.600e-002 	             	
        22.210	             	  4.615e-001 	
        22.272	  7.560e-002 	             	
        22.274	             	  4.615e-001 	
        22.335	  7.540e-002 	             	
        22.338	             	  4.615e-001 	
        22.399	  7.560e-002 	             	
        22.434	             	  4.615e-001 	
        22.463	  7.560e-002 	             	
        22.498	             	  4.615e-001 	
        22.527	  7.570e-002 	             	
        22.562	             	  4.615e-001 	
        22.591	  7.530e-002 	             	
        22.626	             	  4.615e-001 	
        22.655	  7.530e-002 	             	
        22.690	             	  4.615e-001 	
        22.719	  7.560e-002 	             	
        22.754	             	  4.615e-001 	
        22.783	  7.580e-002 	             	
        22.818	             	  4.616e-001 	
        22.848	  7.570e-002 	             	
        22.882	             	  4.617e-001 	
        22.911	  7.560e-002 	             	
        22.946	             	  4.618e-001 	
        22.975	  7.560e-002 	             	
        23.010	             	  4.618e-001 	
        23.071	  7.540e-002 	             	
        23.074	             	  4.618e-001 	
        23.135	  7.540e-002 	             	
        23.138	             	  4.618e-001 	
        23.199	  7.580e-002 	             	
        23.234	             	  4.618e-001 	
        23.263	  7.560e-002 	             	
        23.298	             	  4.618e-001 	
        23.327	  7.560e-002 	             	
        23.362	             	  4.618e-001 	
        23.391	  7.550e-002 	             	
        23.426	             	  4.618e-001 	
        23.455	  7.590e-002 	             	
        23.490	             	  4.619e-001 	
        23.519	  7.560e-002 	             	
        23.554	             	  4.620e-001 	
        23.583	  7.580e-002 	             	
        23.618	             	  4.620e-001 	
        23.647	  7.560e-002 	             	
        23.682	             	  4.620e-001 	
        23.711	  7.570e-002 	             	
        23.746	             	  4.620e-001 	
        23.775	  7.560e-002 	             	
        23.810	             	  4.620e-001 	
        23.871	  7.580e-002 	             	
        23.874	             	  4.621e-001 	
        23.935	  7.580e-002 	             	
        23.938	             	  4.621e-001 	
        23.999	  7.580e-002 	             	
        24.034	             	  4.622e-001 	
        24.063	  7.590e-002 	             	
        24.098	             	  4.623e-001 	
        24.127	  7.590e-002 	             	
        24.162	             	  4.623e-001 	
        24.191	  7.600e-002 	             	
        24.226	             	  4.623e-001 	
        24.256	  7.580e-002 	             	
        24.291	             	  4.623e-001 	
        24.320	  7.610e-002 	             	
        24.355	             	  4.623e-001 	
        24.384	  7.600e-002 	             	
        24.419	             	  4.623e-001 	
        24.448	  7.600e-002 	             	
        24.483	             	  4.623e-001 	
        24.512	  7.600e-002 	             	
        24.547	             	  4.621e-001 	
        24.576	  7.580e-002 	             	
        24.611	             	  4.621e-001 	
        24.672	  7.600e-002 	             	
        24.675	             	  4.622e-001 	
        24.736	  7.600e-002 	             	
        24.739	             	  4.623e-001 	
        24.800	  7.610e-002 	             	
        24.835	             	  4.624e-001 	
        24.864	  7.610e-002 	             	
        24.899	             	  4.624e-001 	
        24.928	  7.630e-002 	             	
        24.963	             	  4.623e-001 	
        24.992	  7.590e-002 	             	
        25.027	             	  4.622e-001 	
        25.056	  7.580e-002 	             	
        25.091	             	  4.621e-001 	
        25.120	  7.550e-002 	             	
        25.155	             	  4.620e-001 	
        25.184	  7.580e-002 	             	
        25.219	             	  4.620e-001 	
        25.248	  7.520e-002 	             	
        25.283	             	  4.619e-001 	
        25.312	  7.550e-002 	             	
        25.347	             	  4.619e-001 	
        25.376	  7.510e-002 	             	
        25.411	             	  4.620e-001 	
        25.472	  7.500e-002 	             	
        25.475	             	  4.620e-001 	
        25.536	  7.470e-002 	             	
        25.539	             	  4.621e-001 	
        25.600	  7.450e-002 	             	
        25.635	             	  4.622e-001 	
        25.664	  7.410e-002 	             	
        25.699	             	  4.622e-001 	
        25.728	  7.420e-002 	             	
        25.763	             	  4.623e-001 	
        25.792	  7.400e-002 	             	
        25.827	             	  4.624e-001 	
        25.856	  7.370e-002 	             	
        25.891	             	  4.624e-001 	
        25.920	  7.400e-002 	             	
        25.955	             	  4.624e-001 	
        25.984	  7.360e-002 	             	
        26.019	             	  4.623e-001 	
        26.048	  7.380e-002 	             	
        26.083	             	  4.622e-001 	
        26.112	  7.370e-002 	             	
        26.147	             	  4.623e-001 	
        26.176	  7.350e-002 	             	
        26.211	             	  4.623e-001 	
        26.272	  7.360e-002 	             	
        26.275	             	  4.624e-001 	
        26.336	  7.360e-002 	             	
        26.339	             	  4.624e-001 	
        26.400	  7.330e-002 	             	
        26.435	             	  4.623e-001 	
        26.464	  7.360e-002 	             	
        26.499	             	  4.623e-001 	
        26.528	  7.350e-002 	             	
        26.563	             	  4.624e-001 	
        26.592	  7.370e-002 	             	
        26.628	             	  4.624e-001 	
        26.656	  7.370e-002 	             	
        26.691	             	  4.624e-001 	
        26.720	  7.360e-002 	             	
        26.755	             	  4.624e-001 	
        26.784	  7.370e-002 	             	
        26.819	             	  4.624e-001 	
        26.848	  7.340e-002 	             	
        26.883	             	  4.624e-001 	
        26.912	  7.320e-002 	             	
        26.947	             	  4.624e-001 	
        26.976	  7.320e-002 	             	
        27.011	             	  4.624e-001 	
        27.072	  7.320e-002 	             	
        27.075	             	  4.624e-001 	
        27.136	  7.310e-002 	             	
        27.139	             	  4.623e-001 	
        27.200	  6.740e-002 	             	
        27.235	             	  4.623e-001 	
        27.264	  5.590e-002 	             	
        27.299	             	  4.623e-001 	
        27.328	  6.130e-002 	             	
        27.363	             	  4.622e-001 	
        27.392	  6.950e-002 	             	
        27.427	             	  4.622e-001 	
        27.456	  6.830e-002 	             	
        27.497	             	  4.622e-001 	
        27.520	  6.450e-002 	             	
        27.555	             	  4.623e-001 	
        27.584	  6.110e-002 	             	
        27.619	             	  4.623e-001 	
        27.648	  5.970e-002 	             	
        27.683	             	  4.624e-001 	
        27.712	  6.010e-002 	             	
        27.747	             	  4.624e-001 	
        27.776	  6.060e-002 	             	
        27.811	             	  4.623e-001 	
        27.872	  6.280e-002 	             	
        27.875	             	  4.622e-001 	
        27.936	  6.630e-002 	             	
        27.939	             	  4.622e-001 	
        28.000	  6.540e-002 	             	
        28.035	             	  4.623e-001 	
        28.064	  6.580e-002 	             	
        28.099	             	  4.623e-001 	
        28.128	  6.580e-002 	             	
        28.163	             	  4.623e-001 	
        28.192	  6.540e-002 	             	
        28.227	             	  4.622e-001 	
        28.256	  6.500e-002 	             	
        28.291	             	  4.622e-001 	
        28.320	  6.590e-002 	             	
        28.355	             	  4.622e-001 	
        28.384	  6.710e-002 	             	
        28.419	             	  4.623e-001 	
        28.448	  6.860e-002 	             	
        28.483	             	  4.624e-001 	
        28.512	  7.220e-002 	             	
        28.547	             	  4.625e-001 	
        28.576	  7.200e-002 	             	
        28.611	             	  4.625e-001 	
        28.672	  7.220e-002 	             	
        28.675	             	  4.626e-001 	
        28.736	  7.220e-002 	             	
        28.739	             	  4.626e-001 	
        28.800	  7.140e-002 	             	
        28.835	             	  4.626e-001 	
        28.864	  7.120e-002 	             	
        28.899	             	  4.626e-001 	
        28.928	  7.060e-002 	             	
        28.963	             	  4.625e-001 	
        28.992	  7.030e-002 	             	
        29.027	             	  4.625e-001 	
        29.056	  7.030e-002 	             	
        29.091	             	  4.624e-001 	
        29.120	  7.140e-002 	             	
        29.155	             	  4.623e-001 	
        29.184	  7.200e-002 	             	
        29.219	             	  4.623e-001 	
        29.248	  7.330e-002 	             	
        29.283	             	  4.623e-001 	
        29.312	  7.390e-002 	             	
        29.347	             	  4.623e-001 	
        29.376	  7.410e-002 	             	
        29.411	             	  4.623e-001 	
        29.472	  7.380e-002 	             	
        29.475	             	  4.622e-001 	
        29.536	  7.380e-002 	             	
        29.539	             	  4.623e-001 	
        29.600	  7.440e-002 	             	
        29.635	             	  4.623e-001 	
        29.664	  7.400e-002 	             	
        29.699	             	  4.623e-001 	
        29.728	  7.410e-002 	             	
        29.763	             	  4.623e-001 	
        29.792	  7.400e-002 	             	
        29.827	             	  4.623e-001 	
        29.856	  7.390e-002 	             	
        29.891	             	  4.623e-001 	
        29.920	  7.390e-002 	             	
        29.955	             	  4.623e-001 	
        29.984	  7.360e-002 	             	
        30.019	             	  4.622e-001 	
        30.048	  7.340e-002 	             	
        30.083	             	  4.622e-001 	
        30.112	  7.370e-002 	             	
        30.147	             	  4.621e-001 	
        30.176	  7.390e-002 	             	
        30.211	             	  4.621e-001 	
        30.272	  7.380e-002 	             	
        30.275	             	  4.622e-001 	
        30.336	  7.320e-002 	             	
        30.339	             	  4.622e-001 	
        30.400	  7.370e-002 	             	
        30.435	             	  4.623e-001 	
        30.464	  7.380e-002 	             	
        30.499	             	  4.624e-001 	
        30.528	  7.380e-002 	             	
        30.563	             	  4.625e-001 	
        30.592	  7.410e-002 	             	
        30.627	             	  4.625e-001 	
        30.656	  7.430e-002 	             	
        30.691	             	  4.625e-001 	
        30.720	  7.420e-002 	             	
        30.755	             	  4.625e-001 	
        30.784	  7.400e-002 	             	
        30.819	             	  4.625e-001 	
        30.848	  7.400e-002 	             	
        30.883	             	  4.625e-001 	
        30.912	  7.410e-002 	             	
        30.947	             	  4.626e-001 	
        30.976	  7.400e-002 	             	
        31.011	             	  4.626e-001 	
        31.072	  7.380e-002 	             	
        31.075	             	  4.625e-001 	
        31.136	  7.420e-002 	             	
        31.139	             	  4.625e-001 	
        31.200	  7.420e-002 	             	
        31.235	             	  4.624e-001 	
        31.264	  7.410e-002 	             	
        31.299	             	  4.623e-001 	
        31.328	  7.410e-002 	             	
        31.363	             	  4.623e-001 	
        31.392	  7.400e-002 	             	
        31.427	             	  4.622e-001 	
        31.456	  7.390e-002 	             	
        31.491	             	  4.622e-001 	
        31.520	  7.400e-002 	             	
        31.555	             	  4.622e-001 	
        31.584	  7.390e-002 	             	
        31.619	             	  4.623e-001 	
        31.648	  7.400e-002 	             	
        31.683	             	  4.625e-001 	
        31.712	  7.390e-002 	             	
        31.747	             	  4.626e-001 	
        31.776	  7.400e-002 	             	
        31.811	             	  4.627e-001 	
        31.872	  7.390e-002 	             	
        31.875	             	  4.626e-001 	
        31.936	  7.390e-002 	             	
        31.939	             	  4.627e-001 	
        32.000	  7.390e-002 	             	
        32.035	             	  4.626e-001 	
        32.064	  7.410e-002 	             	
        32.099	             	  4.626e-001 	
        32.128	  7.400e-002 	             	
        32.163	             	  4.625e-001 	
        32.192	  7.420e-002 	             	
        32.227	             	  4.625e-001 	
        32.256	  7.420e-002 	             	
        32.291	             	  4.624e-001 	
        32.320	  7.370e-002 	             	
        32.355	             	  4.624e-001 	
        32.384	  7.400e-002 	             	
        32.419	             	  4.625e-001 	
        32.448	  7.400e-002 	             	
        32.483	             	  4.625e-001 	
        32.512	  7.390e-002 	             	
        32.547	             	  4.626e-001 	
        32.576	  7.360e-002 	             	
        32.611	             	  4.626e-001 	
        32.672	  7.370e-002 	             	
        32.675	             	  4.625e-001 	
        32.736	  7.380e-002 	             	
        32.739	             	  4.625e-001 	
        32.800	  7.360e-002 	             	
        32.835	             	  4.626e-001 	
        32.864	  7.380e-002 	             	
        32.899	             	  4.626e-001 	
        32.928	  7.400e-002 	             	
        32.963	             	  4.626e-001 	
        32.992	  7.370e-002 	             	
        33.027	             	  4.626e-001 	
        33.056	  7.360e-002 	             	
        33.091	             	  4.626e-001 	
        33.120	  7.380e-002 	             	
        33.155	             	  4.625e-001 	
        33.184	  7.380e-002 	             	
        33.219	             	  4.625e-001 	
        33.248	  7.350e-002 	             	
        33.283	             	  4.625e-001 	
        33.312	  7.370e-002 	             	
        33.347	             	  4.626e-001 	
        33.376	  7.320e-002 	             	
        33.411	             	  4.626e-001 	
        33.472	  7.360e-002 	             	
        33.475	             	  4.626e-001 	
        33.536	  7.340e-002 	             	
        33.539	             	  4.627e-001 	
        33.600	  7.330e-002 	             	
        33.603	             	  4.627e-001 	
        33.664	  7.340e-002 	             	
        33.699	             	  4.627e-001 	
        33.728	  7.350e-002 	             	
        33.763	             	  4.626e-001 	
        33.792	  7.340e-002 	             	
        33.827	             	  4.625e-001 	
        33.856	  7.310e-002 	             	
        33.891	             	  4.626e-001 	
        33.920	  7.310e-002 	             	
        33.955	             	  4.625e-001 	
        33.984	  7.320e-002 	             	
        34.019	             	  4.624e-001 	
        34.048	  7.310e-002 	             	
        34.083	             	  4.624e-001 	
        34.112	  7.300e-002 	             	
        34.147	             	  4.624e-001 	
        34.176	  7.330e-002 	             	
        34.211	             	  4.624e-001 	
        34.272	  7.350e-002 	             	
        34.275	             	  4.623e-001 	
        34.336	  7.320e-002 	             	
        34.339	             	  4.623e-001 	
        34.400	  7.330e-002 	             	
        34.435	             	  4.622e-001 	
        34.464	  7.320e-002 	             	
        34.499	             	  4.622e-001 	
        34.528	  7.340e-002 	             	
        34.563	             	  4.623e-001 	
        34.592	  7.350e-002 	             	
        34.627	             	  4.623e-001 	
        34.656	  7.340e-002 	             	
        34.691	             	  4.624e-001 	
        34.720	  7.320e-002 	             	
        34.755	             	  4.625e-001 	
        34.784	  7.280e-002 	             	
        34.819	             	  4.624e-001 	
        34.848	  7.290e-002 	             	
        34.883	             	  4.625e-001 	
        34.912	  7.300e-002 	             	
        34.947	             	  4.625e-001 	
        34.976	  7.300e-002 	             	
        35.011	             	  4.625e-001 	
        35.040	  7.300e-002 	             	
        35.075	             	  4.624e-001 	
        35.136	  7.330e-002 	             	
        35.139	             	  4.624e-001 	
        35.200	  7.320e-002 	             	
        35.203	             	  4.624e-001 	
        35.264	  7.310e-002 	             	
        35.299	             	  4.624e-001 	
        35.328	  7.290e-002 	             	
        35.363	             	  4.624e-001 	
        35.392	  7.340e-002 	             	
        35.426	             	  4.625e-001 	
        35.456	  7.350e-002 	             	
        35.490	             	  4.625e-001 	
        35.520	  7.320e-002 	             	
        35.555	             	  4.626e-001 	
        35.584	  7.360e-002 	             	
        35.619	             	  4.626e-001 	
        35.648	  7.390e-002 	             	
        35.683	             	  4.625e-001 	
        35.712	  7.370e-002 	             	
        35.747	             	  4.625e-001 	
        35.776	  7.380e-002 	             	
        35.811	             	  4.624e-001 	
        35.872	  7.380e-002 	             	
        35.874	             	  4.624e-001 	
        35.936	  7.370e-002 	             	
        35.939	             	  4.624e-001 	
        36.000	  7.370e-002 	             	
        36.002	             	  4.623e-001 	
        36.064	  7.360e-002 	             	
        36.098	             	  4.622e-001 	
        36.128	  7.360e-002 	             	
        36.163	             	  4.622e-001 	
        36.192	  7.370e-002 	             	
        36.226	             	  4.622e-001 	
        36.256	  7.380e-002 	             	
        36.290	             	  4.622e-001 	
        36.320	  7.360e-002 	             	
        36.355	             	  4.622e-001 	
        36.384	  7.380e-002 	             	
        36.418	             	  4.621e-001 	
        36.448	  7.370e-002 	             	
        36.483	             	  4.620e-001 	
        36.512	  7.350e-002 	             	
        36.547	             	  4.619e-001 	
        36.576	  7.370e-002 	             	
        36.611	             	  4.619e-001 	
        36.640	  7.350e-002 	             	
        36.674	             	  4.620e-001 	
        36.736	  7.360e-002 	             	
        36.738	             	  4.620e-001 	
        36.800	  7.350e-002 	             	
        36.802	             	  4.620e-001 	
        36.864	  7.390e-002 	             	
        36.898	             	  4.621e-001 	
        36.928	  7.420e-002 	             	
        36.962	             	  4.621e-001 	
        36.992	  7.400e-002 	             	
        37.026	             	  4.620e-001 	
        37.056	  7.420e-002 	             	
        37.090	             	  4.620e-001 	
        37.120	  7.400e-002 	             	
        37.154	             	  4.620e-001 	
        37.184	  7.400e-002 	             	
        37.218	             	  4.620e-001 	
        37.248	  7.400e-002 	             	
        37.283	             	  4.619e-001 	
        37.312	  7.410e-002 	             	
        37.346	             	  4.620e-001 	
        37.376	  7.430e-002 	             	
        37.410	             	  4.619e-001 	
        37.440	  7.410e-002 	             	
        37.474	             	  4.619e-001 	
        37.536	  7.380e-002 	             	
        37.538	             	  4.619e-001 	
        37.600	  7.420e-002 	             	
        37.602	             	  4.619e-001 	
        37.664	  7.410e-002 	             	
        37.698	             	  4.618e-001 	
        37.728	  7.410e-002 	             	
        37.762	             	  4.618e-001 	
        37.792	  7.400e-002 	             	
        37.826	             	  4.618e-001 	
        37.856	  7.400e-002 	             	
        37.890	             	  4.618e-001 	
        37.920	  7.370e-002 	             	
        37.954	             	  4.619e-001 	
        37.984	  7.390e-002 	             	
        38.018	             	  4.620e-001 	
        38.048	  7.380e-002 	             	
        38.082	             	  4.622e-001 	
        38.112	  7.410e-002 	             	
        38.146	             	  4.622e-001 	
        38.176	  7.410e-002 	             	
        38.210	             	  4.622e-001 	
        38.240	  7.430e-002 	             	
        38.274	             	  4.622e-001 	
        38.336	  7.430e-002 	             	
        38.338	             	  4.622e-001 	
        38.400	  7.400e-002 	             	
        38.434	             	  4.622e-001 	
        38.464	  7.420e-002 	             	
        38.498	             	  4.621e-001 	
        38.527	  7.450e-002 	             	
        38.563	             	  4.621e-001 	
        38.591	  7.420e-002 	             	
        38.626	             	  4.621e-001 	
        38.655	  7.410e-002 	             	
        38.690	             	  4.621e-001 	
        38.719	  7.420e-002 	             	
        38.754	             	  4.621e-001 	
        38.783	  7.430e-002 	             	
        38.818	             	  4.621e-001 	
        38.847	  7.430e-002 	             	
        38.882	             	  4.621e-001 	
        38.911	  7.410e-002 	             	
        38.946	             	  4.621e-001 	
        38.976	  7.430e-002 	             	
        39.010	             	  4.620e-001 	
        39.039	  7.420e-002 	             	
        39.074	             	  4.621e-001 	
        39.135	  7.410e-002 	             	
        39.138	             	  4.621e-001 	
        39.199	  7.410e-002 	             	
        39.202	             	  4.621e-001 	
        39.263	  7.440e-002 	             	
        39.298	             	  4.621e-001 	
        39.327	  7.420e-002 	             	
        39.362	             	  4.621e-001 	
        39.391	  7.400e-002 	             	
        39.426	             	  4.622e-001 	
        39.455	  7.430e-002 	             	
        39.490	             	  4.623e-001 	
        39.519	  7.400e-002 	             	
        39.554	             	  4.623e-001 	
        39.583	  7.410e-002 	             	
        39.618	             	  4.623e-001 	
        39.647	  7.400e-002 	             	
        39.682	             	  4.623e-001 	
        39.711	  7.410e-002 	             	
        39.746	             	  4.622e-001 	
        39.775	  7.400e-002 	             	
        39.810	             	  4.622e-001 	
        39.839	  7.410e-002 	             	
        39.874	             	  4.621e-001 	
        39.935	  7.420e-002 	             	
        39.938	             	  4.621e-001 	
        39.999	  7.410e-002 	             	
        40.002	             	  4.621e-001 	
        40.063	  7.430e-002 	             	
        40.098	             	  4.620e-001 	
        40.127	  7.400e-002 	             	
        40.162	             	  4.620e-001 	
        40.191	  7.430e-002 	             	
        40.226	             	  4.621e-001 	
        40.255	  7.410e-002 	             	
        40.290	             	  4.622e-001 	
        40.319	  7.400e-002 	             	
        40.354	             	  4.622e-001 	
        40.383	  7.400e-002 	             	
        40.418	             	  4.622e-001 	
        40.447	  7.410e-002 	             	
        40.482	             	  4.621e-001 	
        40.512	  7.400e-002 	             	
        40.546	             	  4.621e-001 	
        40.575	  7.430e-002 	             	
        40.610	             	  4.622e-001 	
        40.639	  7.410e-002 	             	
        40.674	             	  4.622e-001 	
        40.735	  7.400e-002 	             	
        40.738	             	  4.622e-001 	
        40.799	  7.400e-002 	             	
        40.802	             	  4.622e-001 	
        40.863	  7.390e-002 	             	
        40.898	             	  4.622e-001 	
        40.927	  7.390e-002 	             	
        40.962	             	  4.622e-001 	
        40.991	  7.400e-002 	             	
        41.026	             	  4.623e-001 	
        41.056	  7.380e-002 	             	
        41.090	             	  4.623e-001 	
        41.119	  7.380e-002 	             	
        41.154	             	  4.623e-001 	
        41.183	  7.380e-002 	             	
        41.218	             	  4.622e-001 	
        41.247	  7.420e-002 	             	
        41.282	             	  4.622e-001 	
        41.311	  7.390e-002 	             	
        41.346	             	  4.622e-001 	
        41.375	  7.370e-002 	             	
        41.410	             	  4.623e-001 	
        41.439	  7.400e-002 	             	
        41.474	             	  4.623e-001 	
        41.535	  7.400e-002 	             	
        41.538	             	  4.623e-001 	
        41.599	  7.380e-002 	             	
        41.602	             	  4.622e-001 	
        41.663	  7.390e-002 	             	
        41.698	             	  4.621e-001 	
        41.728	  7.380e-002 	             	
        41.763	             	  4.621e-001 	
        41.792	  7.370e-002 	             	
        41.827	             	  4.621e-001 	
        41.856	  7.390e-002 	             	
        41.891	             	  4.621e-001 	
        41.920	  7.370e-002 	             	
        41.955	             	  4.621e-001 	
        41.984	  7.380e-002 	             	
        42.019	             	  4.620e-001 	
        42.048	  7.370e-002 	             	
        42.083	             	  4.620e-001 	
        42.112	  7.350e-002 	             	
        42.147	             	  4.619e-001 	
        42.176	  7.360e-002 	             	
        42.211	             	  4.618e-001 	
        42.240	  7.380e-002 	             	
        42.275	             	  4.617e-001 	
        42.336	  7.390e-002 	             	
        42.339	             	  4.616e-001 	
        42.400	  7.390e-002 	             	
        42.403	             	  4.615e-001 	
        42.464	  7.370e-002 	             	
        42.499	             	  4.615e-001 	
        42.528	  7.370e-002 	             	
        42.563	             	  4.616e-001 	
        42.592	  7.380e-002 	             	
        42.627	             	  4.616e-001 	
        42.656	  7.400e-002 	             	
        42.691	             	  4.617e-001 	
        42.720	  7.420e-002 	             	
        42.755	             	  4.618e-001 	
        42.784	  7.420e-002 	             	
        42.819	             	  4.619e-001 	
        42.848	  7.420e-002 	             	
        42.883	             	  4.621e-001 	
        42.912	  7.380e-002 	             	
        42.947	             	  4.623e-001 	
        42.976	  7.390e-002 	             	
        43.011	             	  4.625e-001 	
        43.040	  7.390e-002 	             	
        43.075	             	  4.626e-001 	
        43.136	  7.400e-002 	             	
        43.139	             	  4.626e-001 	
        43.200	  7.420e-002 	             	
        43.203	             	  4.626e-001 	
        43.264	  7.380e-002 	             	
        43.299	             	  4.626e-001 	
        43.328	  7.370e-002 	             	
        43.363	             	  4.625e-001 	
        43.392	  7.370e-002 	             	
        43.427	             	  4.625e-001 	
        43.456	  7.400e-002 	             	
        43.491	             	  4.625e-001 	
        43.520	  7.420e-002 	             	
        43.555	             	  4.625e-001 	
        43.584	  7.400e-002 	             	
        43.619	             	  4.624e-001 	
        43.648	  7.410e-002 	             	
        43.683	             	  4.624e-001 	
        43.712	  7.390e-002 	             	
        43.747	             	  4.623e-001 	
        43.776	  7.420e-002 	             	
        43.811	             	  4.622e-001 	
        43.840	  7.370e-002 	             	
        43.875	             	  4.622e-001 	
        43.936	  7.390e-002 	             	
        43.939	             	  4.621e-001 	
        44.000	  7.380e-002 	             	
        44.003	             	  4.621e-001 	
        44.064	  7.390e-002 	             	
        44.099	             	  4.621e-001 	
        44.128	  7.380e-002 	             	
        44.163	             	  4.621e-001 	
        44.192	  7.390e-002 	             	
        44.227	             	  4.621e-001 	
        44.256	  7.380e-002 	             	
        44.291	             	  4.621e-001 	
        44.320	  7.420e-002 	             	
        44.355	             	  4.621e-001 	
        44.384	  7.400e-002 	             	
        44.419	             	  4.621e-001 	
        44.448	  7.400e-002 	             	
        44.483	             	  4.620e-001 	
        44.512	  7.380e-002 	             	
        44.547	             	  4.618e-001 	
        44.576	  7.380e-002 	             	
        44.611	             	  4.617e-001 	
        44.640	  7.410e-002 	             	
        44.675	             	  4.617e-001 	
        44.736	  7.390e-002 	             	
        44.739	             	  4.618e-001 	
        44.800	  7.400e-002 	             	
        44.803	             	  4.618e-001 	
        44.864	  7.400e-002 	             	
        44.899	             	  4.618e-001 	
        44.928	  7.430e-002 	             	
        44.963	             	  4.618e-001 	
        44.992	  7.430e-002 	             	
        45.027	             	  4.618e-001 	
        45.056	  7.410e-002 	             	
        45.091	             	  4.618e-001 	
        45.120	  7.410e-002 	             	
        45.155	             	  4.619e-001 	
        45.184	  7.410e-002 	             	
        45.219	             	  4.619e-001 	
        45.248	  7.410e-002 	             	
        45.283	             	  4.620e-001 	
        45.312	  7.400e-002 	             	
        45.347	             	  4.620e-001 	
        45.376	  7.430e-002 	             	
        45.411	             	  4.620e-001 	
        45.440	  7.440e-002 	             	
        45.475	             	  4.620e-001 	
        45.536	  7.360e-002 	             	
        45.539	             	  4.621e-001 	
        45.600	  7.440e-002 	             	
        45.603	             	  4.621e-001 	
        45.664	  7.410e-002 	             	
        45.699	             	  4.622e-001 	
        45.728	  7.410e-002 	             	
        45.763	             	  4.622e-001 	
        45.792	  7.430e-002 	             	
        45.827	             	  4.622e-001 	
        45.856	  7.440e-002 	             	
        45.891	             	  4.623e-001 	
        45.920	  7.400e-002 	             	
        45.955	             	  4.623e-001 	
        45.984	  7.410e-002 	             	
        46.019	             	  4.622e-001 	
        46.048	  7.380e-002 	             	
        46.083	             	  4.621e-001 	
        46.112	  7.430e-002 	             	
        46.147	             	  4.619e-001 	
        46.176	  7.420e-002 	             	
        46.211	             	  4.618e-001 	
        46.240	  7.390e-002 	             	
        46.275	             	  4.617e-001 	
        46.336	  7.410e-002 	             	
        46.339	             	  4.618e-001 	
        46.400	  7.400e-002 	             	
        46.403	             	  4.618e-001 	
        46.464	  7.400e-002 	             	
        46.467	             	  4.619e-001 	
        46.528	  7.410e-002 	             	
        46.563	             	  4.620e-001 	
        46.592	  7.420e-002 	             	
        46.627	             	  4.621e-001 	
        46.656	  7.410e-002 	             	
        46.691	             	  4.621e-001 	
        46.720	  7.430e-002 	             	
        46.755	             	  4.621e-001 	
        46.784	  7.430e-002 	             	
        46.819	             	  4.621e-001 	
        46.848	  7.420e-002 	             	
        46.883	             	  4.622e-001 	
        46.912	  7.390e-002 	             	
        46.947	             	  4.622e-001 	
        46.976	  7.380e-002 	             	
        47.011	             	  4.622e-001 	
        47.040	  7.410e-002 	             	
        47.075	             	  4.622e-001 	
        47.136	  7.400e-002 	             	
        47.139	             	  4.622e-001 	
        47.200	  7.430e-002 	             	
        47.203	             	  4.621e-001 	
        47.264	  7.440e-002 	             	
        47.267	             	  4.621e-001 	
        47.328	  7.420e-002 	             	
        47.363	             	  4.620e-001 	
        47.392	  7.420e-002 	             	
        47.427	             	  4.620e-001 	
        47.456	  7.430e-002 	             	
        47.491	             	  4.620e-001 	
        47.520	  7.430e-002 	             	
        47.555	             	  4.619e-001 	
        47.584	  7.440e-002 	             	
        47.619	             	  4.619e-001 	
        47.648	  7.420e-002 	             	
        47.683	             	  4.619e-001 	
        47.712	  7.400e-002 	             	
        47.747	             	  4.619e-001 	
        47.776	  7.410e-002 	             	
        47.811	             	  4.620e-001 	
        47.840	  7.420e-002 	             	
        47.875	             	  4.620e-001 	
        47.904	  7.430e-002 	             	
        47.939	             	  4.621e-001 	
        48.000	  7.420e-002 	             	
        48.003	             	  4.621e-001 	
        48.064	  7.420e-002 	             	
        48.067	             	  4.620e-001 	
        48.128	  7.420e-002 	             	
        48.163	             	  4.620e-001 	
        48.192	  7.410e-002 	             	
        48.227	             	  4.621e-001 	
        48.256	  7.430e-002 	             	
        48.291	             	  4.621e-001 	
        48.320	  7.400e-002 	             	
        48.355	             	  4.622e-001 	
        48.384	  7.460e-002 	             	
        48.419	             	  4.622e-001 	
        48.448	  7.440e-002 	             	
        48.483	             	  4.621e-001 	
        48.512	  7.410e-002 	             	
        48.547	             	  4.620e-001 	
        48.576	  7.390e-002 	             	
        48.611	             	  4.619e-001 	
        48.640	  7.400e-002 	             	
        48.675	             	  4.618e-001 	
        48.704	  7.390e-002 	             	
        48.739	             	  4.618e-001 	
        48.800	  7.440e-002 	             	
        48.803	             	  4.618e-001 	
        48.864	  7.470e-002 	             	
        48.867	             	  4.619e-001 	
        48.928	  7.460e-002 	             	
        48.963	             	  4.620e-001 	
        48.992	  7.410e-002 	             	
        49.027	             	  4.621e-001 	
        49.056	  7.430e-002 	             	
        49.091	             	  4.622e-001 	
        49.120	  7.440e-002 	             	
        49.155	             	  4.622e-001 	
        49.184	  7.450e-002 	             	
        49.219	             	  4.622e-001 	
        49.248	  7.410e-002 	             	
        49.283	             	  4.621e-001 	
        49.312	  7.410e-002 	             	
        49.347	             	  4.620e-001 	
        49.376	  7.430e-002 	             	
        49.411	             	  4.619e-001 	
        49.440	  7.440e-002 	             	
        49.475	             	  4.619e-001 	
        49.504	  7.470e-002 	             	
        49.539	             	  4.619e-001 	
        49.600	  7.410e-002 	             	
        49.603	             	  4.619e-001 	
        49.664	  7.430e-002 	             	
        49.667	             	  4.620e-001 	
        49.728	  7.400e-002 	             	
        49.763	             	  4.619e-001 	
        49.792	  7.450e-002 	             	
        49.827	             	  4.619e-001 	
        49.856	  7.420e-002 	             	
        49.891	             	  4.619e-001 	
        49.920	  7.440e-002 	             	
        49.955	             	  4.619e-001 	
        49.984	  7.450e-002 	             	
        50.019	             	  4.620e-001 	
        50.048	  7.430e-002 	             	
        50.083	             	  4.620e-001 	
        50.112	  7.460e-002 	             	
        50.147	             	  4.621e-001 	
        50.176	  7.420e-002 	             	
        50.211	             	  4.621e-001 	
        50.240	  7.430e-002 	             	
        50.275	             	  4.621e-001 	
        50.304	  7.400e-002 	             	
        50.339	             	  4.622e-001 	
        50.400	  7.420e-002 	             	
        50.403	             	  4.621e-001 	
        50.464	  7.410e-002 	             	
        50.467	             	  4.621e-001 	
        50.528	  7.410e-002 	             	
        50.563	             	  4.619e-001 	
        50.592	  7.400e-002 	             	
        50.627	             	  4.619e-001 	
        50.656	  7.410e-002 	             	
        50.691	             	  4.618e-001 	
        50.720	  7.430e-002 	             	
        50.755	             	  4.617e-001 	
        50.784	  7.420e-002 	             	
        50.819	             	  4.616e-001 	
        50.848	  7.450e-002 	             	
        50.883	             	  4.616e-001 	
        50.912	  7.430e-002 	             	
        50.947	             	  4.617e-001 	
        50.976	  7.440e-002 	             	
        51.011	             	  4.618e-001 	
        51.040	  7.410e-002 	             	
        51.075	             	  4.618e-001 	
        51.104	  7.430e-002 	             	
        51.139	             	  4.619e-001 	
        51.200	  7.440e-002 	             	
        51.203	             	  4.619e-001 	
        51.264	  7.430e-002 	             	
        51.267	             	  4.619e-001 	
        51.328	  7.440e-002 	             	
        51.363	             	  4.618e-001 	
        51.392	  7.410e-002 	             	
        51.427	             	  4.619e-001 	
        51.456	  7.430e-002 	             	
        51.491	             	  4.619e-001 	
        51.520	  7.430e-002 	             	
        51.555	             	  4.618e-001 	
        51.584	  7.440e-002 	             	
        51.619	             	  4.618e-001 	
        51.648	  7.420e-002 	             	
        51.683	             	  4.618e-001 	
        51.712	  7.440e-002 	             	
        51.747	             	  4.619e-001 	
        51.776	  7.430e-002 	             	
        51.811	             	  4.619e-001 	
        51.840	  7.400e-002 	             	
        51.875	             	  4.619e-001 	
        51.904	  7.440e-002 	             	
        51.939	             	  4.620e-001 	
        52.000	  7.440e-002 	             	
        52.003	             	  4.620e-001 	
        52.064	  7.450e-002 	             	
        52.067	             	  4.620e-001 	
        52.128	  7.430e-002 	             	
        52.163	             	  4.620e-001 	
        52.192	  7.440e-002 	             	
        52.227	             	  4.620e-001 	
        52.256	  7.410e-002 	             	
        52.291	             	  4.621e-001 	
        52.320	  7.430e-002 	             	
        52.355	             	  4.621e-001 	
        52.384	  7.420e-002 	             	
        52.419	             	  4.622e-001 	
        52.448	  7.430e-002 	             	
        52.483	             	  4.622e-001 	
        52.512	  7.430e-002 	             	
        52.547	             	  4.622e-001 	
        52.576	  7.430e-002 	             	
        52.611	             	  4.622e-001 	
        52.640	  7.410e-002 	             	
        52.675	             	  4.623e-001 	
        52.704	  7.430e-002 	             	
        52.738	             	  4.623e-001 	
        52.800	  7.420e-002 	             	
        52.802	             	  4.623e-001 	
        52.864	  7.440e-002 	             	
        52.866	             	  4.623e-001 	
        52.928	  7.440e-002 	             	
        52.963	             	  4.622e-001 	
        52.992	  7.430e-002 	             	
        53.027	             	  4.622e-001 	
        53.056	  7.420e-002 	             	
        53.091	             	  4.622e-001 	
        53.120	  7.430e-002 	             	
        53.154	             	  4.622e-001 	
        53.184	  7.430e-002 	             	
        53.219	             	  4.623e-001 	
        53.248	  7.450e-002 	             	
        53.283	             	  4.623e-001 	
        53.312	  7.410e-002 	             	
        53.346	             	  4.623e-001 	
        53.376	  7.400e-002 	             	
        53.411	             	  4.623e-001 	
        53.440	  7.440e-002 	             	
        53.475	             	  4.623e-001 	
        53.504	  7.410e-002 	             	
        53.539	             	  4.622e-001 	
        53.600	  7.440e-002 	             	
        53.603	             	  4.622e-001 	
        53.664	  7.400e-002 	             	
        53.666	             	  4.623e-001 	
        53.728	  7.410e-002 	             	
        53.763	             	  4.623e-001 	
        53.792	  7.410e-002 	             	
        53.827	             	  4.622e-001 	
        53.856	  7.440e-002 	             	
        53.890	             	  4.622e-001 	
        53.920	  7.430e-002 	             	
        53.955	             	  4.622e-001 	
        53.984	  7.430e-002 	             	
        54.018	             	  4.621e-001 	
        54.048	  7.410e-002 	             	
        54.083	             	  4.621e-001 	
        54.112	  7.420e-002 	             	
        54.147	             	  4.620e-001 	
        54.176	  7.420e-002 	             	
        54.210	             	  4.620e-001 	
        54.240	  7.420e-002 	             	
        54.275	             	  4.619e-001 	
        54.304	  7.430e-002 	             	
        54.338	             	  4.620e-001 	
        54.400	  7.430e-002 	             	
        54.402	             	  4.620e-001 	
        54.464	  7.420e-002 	             	
        54.466	             	  4.619e-001 	
        54.528	  7.440e-002 	             	
        54.562	             	  4.618e-001 	
        54.592	  7.430e-002 	             	
        54.626	             	  4.619e-001 	
        54.656	  7.440e-002 	             	
        54.690	             	  4.619e-001 	
        54.720	  7.430e-002 	             	
        54.754	             	  4.621e-001 	
        54.784	  7.420e-002 	             	
        54.818	             	  4.621e-001 	
        54.848	  7.430e-002 	             	
        54.882	             	  4.621e-001 	
        54.912	  7.430e-002 	             	
        54.946	             	  4.621e-001 	
        54.976	  7.430e-002 	             	
        55.010	             	  4.621e-001 	
        55.040	  7.420e-002 	             	
        55.075	             	  4.620e-001 	
        55.104	  7.430e-002 	             	
        55.138	             	  4.620e-001 	
        55.200	  7.420e-002 	             	
        55.202	             	  4.620e-001 	
        55.264	  7.440e-002 	             	
        55.266	             	  4.621e-001 	
        55.328	  7.420e-002 	             	
        55.362	             	  4.621e-001 	
        55.391	  7.440e-002 	             	
        55.426	             	  4.620e-001 	
        55.456	  7.420e-002 	             	
        55.490	             	  4.619e-001 	
        55.520	  7.430e-002 	             	
        55.554	             	  4.619e-001 	
        55.584	  7.420e-002 	             	
        55.618	             	  4.618e-001 	
        55.648	  7.440e-002 	             	
        55.682	             	  4.619e-001 	
        55.712	  7.440e-002 	             	
        55.746	             	  4.618e-001 	
        55.776	  7.450e-002 	             	
        55.810	             	  4.618e-001 	
        55.840	  7.410e-002 	             	
        55.874	             	  4.618e-001 	
        55.904	  7.440e-002 	             	
        55.938	             	  4.619e-001 	
        55.999	  7.440e-002 	             	
        56.002	             	  4.619e-001 	
        56.064	  7.440e-002 	             	
        56.066	             	  4.620e-001 	
        56.127	  7.420e-002 	             	
        56.162	             	  4.621e-001 	
        56.191	  7.420e-002 	             	
        56.226	             	  4.621e-001 	
        56.255	  7.410e-002 	             	
        56.290	             	  4.622e-001 	
        56.319	  7.430e-002 	             	
        56.354	             	  4.622e-001 	
        56.383	  7.440e-002 	             	
        56.418	             	  4.623e-001 	
        56.447	  7.410e-002 	             	
        56.482	             	  4.622e-001 	
        56.512	  7.420e-002 	             	
        56.546	             	  4.622e-001 	
        56.576	  7.450e-002 	             	
        56.610	             	  4.622e-001 	
        56.639	  7.440e-002 	             	
        56.674	             	  4.621e-001 	
        56.703	  7.450e-002 	             	
        56.738	             	  4.621e-001 	
        56.800	  7.430e-002 	             	
        56.802	             	  4.621e-001 	
        56.863	  7.430e-002 	             	
        56.866	             	  4.621e-001 	
        56.928	  7.410e-002 	             	
        56.962	             	  4.621e-001 	
        56.991	  7.410e-002 	             	
        57.026	             	  4.622e-001 	
        57.055	  7.430e-002 	             	
        57.090	             	  4.622e-001 	
        57.119	  7.440e-002 	             	
        57.154	             	  4.622e-001 	
        57.183	  7.400e-002 	             	
        57.218	             	  4.622e-001 	
        57.247	  7.450e-002 	             	
        57.282	             	  4.622e-001 	
        57.312	  7.430e-002 	             	
        57.346	             	  4.621e-001 	
        57.375	  7.400e-002 	             	
        57.410	             	  4.621e-001 	
        57.439	  7.440e-002 	             	
        57.474	             	  4.620e-001 	
        57.503	  7.430e-002 	             	
        57.538	             	  4.621e-001 	
        57.599	  7.440e-002 	             	
        57.602	             	  4.621e-001 	
        57.663	  7.450e-002 	             	
        57.666	             	  4.621e-001 	
        57.727	  7.430e-002 	             	
        57.762	             	  4.621e-001 	
        57.791	  7.420e-002 	             	
        57.826	             	  4.621e-001 	
        57.855	  7.410e-002 	             	
        57.890	             	  4.622e-001 	
        57.919	  7.450e-002 	             	
        57.954	             	  4.622e-001 	
        57.983	  7.420e-002 	             	
        58.018	             	  4.622e-001 	
        58.047	  7.400e-002 	             	
        58.082	             	  4.621e-001 	
        58.112	  7.410e-002 	             	
        58.146	             	  4.620e-001 	
        58.175	  7.410e-002 	             	
        58.210	             	  4.619e-001 	
        58.239	  7.420e-002 	             	
        58.274	             	  4.619e-001 	
        58.303	  7.430e-002 	             	
        58.338	             	  4.619e-001 	
        58.399	  7.420e-002 	             	
        58.402	             	  4.619e-001 	
        58.463	  7.400e-002 	             	
        58.466	             	  4.619e-001 	
        58.527	  7.430e-002 	             	
        58.530	             	  4.619e-001 	
        58.591	  7.400e-002 	             	
        58.626	             	  4.619e-001 	
        58.655	  7.440e-002 	             	
        58.690	             	  4.618e-001 	
        58.719	  7.400e-002 	             	
        58.754	             	  4.619e-001 	
        58.783	  7.420e-002 	             	
        58.818	             	  4.619e-001 	
        58.847	  7.390e-002 	             	
        58.882	             	  4.619e-001 	
        58.911	  7.410e-002 	             	
        58.946	             	  4.619e-001 	
        58.975	  7.410e-002 	             	
        59.010	             	  4.619e-001 	
        59.039	  7.430e-002 	             	
        59.074	             	  4.618e-001 	
        59.103	  7.380e-002 	             	
        59.138	             	  4.618e-001 	
        59.199	  7.390e-002 	             	
        59.203	             	  4.618e-001 	
        59.264	  7.410e-002 	             	
        59.267	             	  4.617e-001 	
        59.328	  7.420e-002 	             	
        59.331	             	  4.616e-001 	
        59.392	  7.390e-002 	             	
        59.427	             	  4.615e-001 	
        59.456	  7.410e-002 	             	
        59.491	             	  4.615e-001 	
        59.520	  7.420e-002 	             	
        59.555	             	  4.615e-001 	
        59.584	  7.410e-002 	             	
        59.619	             	  4.616e-001 	
        59.648	  7.420e-002 	             	
        59.683	             	  4.616e-001 	
        59.712	  7.440e-002 	             	
        59.747	             	  4.616e-001 	
        59.776	  7.410e-002 	             	
        59.811	             	  4.617e-001 	
        59.840	  7.390e-002 	             	
        59.875	             	  4.617e-001 	
        59.904	  7.400e-002 	             	
        59.939	             	  4.618e-001 	
        60.000	  7.390e-002 	             	
        60.003	             	  4.618e-001 	
        60.064	  7.430e-002 	             	
        60.067	             	  4.619e-001 	
        60.128	  7.410e-002 	             	
        60.131	             	  4.618e-001 	
        60.192	  7.420e-002 	             	
        60.227	             	  4.618e-001 	
        60.256	  7.400e-002 	             	
        60.291	             	  4.618e-001 	
        60.320	  7.420e-002 	             	
        60.355	             	  4.618e-001 	
        60.384	  7.420e-002 	             	
        60.419	             	  4.617e-001 	
        60.448	  7.420e-002 	             	
        60.483	             	  4.617e-001 	
        60.512	  7.430e-002 	             	
        60.547	             	  4.617e-001 	
        60.576	  7.400e-002 	             	
        60.611	             	  4.618e-001 	
        60.640	  7.400e-002 	             	
        60.675	             	  4.617e-001 	
        60.704	  7.420e-002 	             	
        60.739	             	  4.617e-001 	
        60.800	  7.420e-002 	             	
        60.803	             	  4.616e-001 	
        60.864	  7.410e-002 	             	
        60.867	             	  4.616e-001 	
        60.928	  7.410e-002 	             	
        60.931	             	  4.616e-001 	
        60.992	  7.420e-002 	             	
        61.027	             	  4.617e-001 	
        61.056	  7.430e-002 	             	
        61.091	             	  4.618e-001 	
        61.120	  7.440e-002 	             	
        61.155	             	  4.618e-001 	
        61.184	  7.440e-002 	             	
        61.219	             	  4.618e-001 	
        61.248	  7.440e-002 	             	
        61.283	             	  4.618e-001 	
        61.312	  7.410e-002 	             	
        61.347	             	  4.618e-001 	
        61.376	  7.410e-002 	             	
        61.411	             	  4.619e-001 	
        61.440	  7.430e-002 	             	
        61.475	             	  4.620e-001 	
        61.504	  7.420e-002 	             	
        61.539	             	  4.620e-001 	
        61.568	  7.400e-002 	             	
        61.603	             	  4.620e-001 	
        61.664	  7.440e-002 	             	
        61.667	             	  4.621e-001 	
        61.728	  7.410e-002 	             	
        61.731	             	  4.621e-001 	
        61.792	  7.400e-002 	             	
        61.827	             	  4.622e-001 	
        61.856	  7.400e-002 	             	
        61.891	             	  4.622e-001 	
        61.920	  7.410e-002 	             	
        61.955	             	  4.622e-001 	
        61.984	  7.410e-002 	             	
        62.019	             	  4.621e-001 	
        62.048	  7.400e-002 	             	
        62.083	             	  4.620e-001 	
        62.112	  7.430e-002 	             	
        62.147	             	  4.620e-001 	
        62.176	  7.410e-002 	             	
        62.211	             	  4.620e-001 	
        62.240	  7.430e-002 	             	
        62.275	             	  4.620e-001 	
        62.304	  7.400e-002 	             	
        62.339	             	  4.620e-001 	
        62.368	  7.400e-002 	             	
        62.403	             	  4.620e-001 	
        62.464	  7.430e-002 	             	
        62.467	             	  4.619e-001 	
        62.528	  7.420e-002 	             	
        62.531	             	  4.619e-001 	
        62.592	  7.430e-002 	             	
        62.627	             	  4.618e-001 	
        62.656	  7.420e-002 	             	
        62.691	             	  4.618e-001 	
        62.720	  7.430e-002 	             	
        62.755	             	  4.617e-001 	
        62.784	  7.440e-002 	             	
        62.819	             	  4.618e-001 	
        62.848	  7.450e-002 	             	
        62.883	             	  4.618e-001 	
        62.912	  7.440e-002 	             	
        62.947	             	  4.618e-001 	
        62.976	  7.420e-002 	             	
        63.011	             	  4.619e-001 	
        63.040	  7.420e-002 	             	
        63.075	             	  4.619e-001 	
        63.104	  7.420e-002 	             	
        63.139	             	  4.619e-001 	
        63.168	  7.430e-002 	             	
        63.203	             	  4.619e-001 	
        63.264	  7.450e-002 	             	
        63.267	             	  4.620e-001 	
        63.328	  7.410e-002 	             	
        63.331	             	  4.620e-001 	
        63.392	  7.450e-002 	             	
        63.427	             	  4.621e-001 	
        63.456	  7.430e-002 	             	
        63.491	             	  4.622e-001 	
        63.520	  7.440e-002 	             	
        63.555	             	  4.623e-001 	
        63.584	  7.430e-002 	             	
        63.619	             	  4.624e-001 	
        63.648	  7.420e-002 	             	
        63.683	             	  4.625e-001 	
        63.712	  7.460e-002 	             	
        63.747	             	  4.625e-001 	
        63.776	  7.440e-002 	             	
        63.811	             	  4.624e-001 	
        63.840	  7.450e-002 	             	
        63.875	             	  4.622e-001 	
        63.904	  7.430e-002 	             	
        63.939	             	  4.621e-001 	
        63.968	  7.450e-002 	             	
        64.003	             	  4.621e-001 	
        64.064	  7.430e-002 	             	
        64.067	             	  4.622e-001 	
        64.128	  7.420e-002 	             	
        64.131	             	  4.622e-001 	
        64.192	  7.430e-002 	             	
        64.227	             	  4.623e-001 	
        64.256	  7.400e-002 	             	
        64.291	             	  4.624e-001 	
        64.320	  7.450e-002 	             	
        64.355	             	  4.624e-001 	
        64.384	  7.430e-002 	             	
        64.419	             	  4.623e-001 	
        64.448	  7.390e-002 	             	
        64.483	             	  4.623e-001 	
        64.512	  7.420e-002 	             	
        64.547	             	  4.621e-001 	
        64.576	  7.430e-002 	             	
        64.611	             	  4.620e-001 	
        64.640	  7.410e-002 	             	
        64.675	             	  4.620e-001 	
        64.704	  7.410e-002 	             	
        64.739	             	  4.619e-001 	
        64.768	  7.440e-002 	             	
        64.803	             	  4.619e-001 	
        64.864	  7.450e-002 	             	
        64.867	             	  4.619e-001 	
        64.928	  7.390e-002 	             	
        64.931	             	  4.619e-001 	
        64.992	  7.440e-002 	             	
        65.027	             	  4.620e-001 	
        65.056	  7.430e-002 	             	
        65.091	             	  4.620e-001 	
        65.120	  7.440e-002 	             	
        65.155	             	  4.621e-001 	
        65.184	  7.450e-002 	             	
        65.219	             	  4.622e-001 	
        65.248	  7.410e-002 	             	
        65.283	             	  4.622e-001 	
        65.312	  7.440e-002 	             	
        65.347	             	  4.622e-001 	
        65.376	  7.430e-002 	             	
        65.411	             	  4.621e-001 	
        65.440	  7.440e-002 	             	
        65.475	             	  4.621e-001 	
        65.504	  7.430e-002 	             	
        65.539	             	  4.620e-001 	
        65.568	  7.420e-002 	             	
        65.603	             	  4.620e-001 	
        65.664	  7.400e-002 	             	
        65.667	             	  4.620e-001 	
        65.728	  7.410e-002 	             	
        65.731	             	  4.620e-001 	
        65.792	  7.420e-002 	             	
        65.827	             	  4.620e-001 	
        65.856	  7.420e-002 	             	
        65.891	             	  4.621e-001 	
        65.920	  7.410e-002 	             	
        65.955	             	  4.621e-001 	
        65.984	  7.430e-002 	             	
        66.019	             	  4.620e-001 	
        66.048	  7.420e-002 	             	
        66.083	             	  4.620e-001 	
        66.112	  7.410e-002 	             	
        66.147	             	  4.619e-001 	
        66.176	  7.440e-002 	             	
        66.211	             	  4.619e-001 	
        66.240	  7.360e-002 	             	
        66.275	             	  4.618e-001 	
        66.304	  7.410e-002 	             	
        66.339	             	  4.619e-001 	
        66.368	  7.390e-002 	             	
        66.403	             	  4.619e-001 	
        66.464	  7.430e-002 	             	
        66.467	             	  4.619e-001 	
        66.528	  7.420e-002 	             	
        66.531	             	  4.619e-001 	
        66.592	  7.400e-002 	             	
        66.627	             	  4.619e-001 	
        66.656	  7.420e-002 	             	
        66.691	             	  4.618e-001 	
        66.720	  7.440e-002 	             	
        66.755	             	  4.618e-001 	
        66.784	  7.420e-002 	             	
        66.819	             	  4.617e-001 	
        66.848	  7.430e-002 	             	
        66.883	             	  4.617e-001 	
        66.912	  7.420e-002 	             	
        66.947	             	  4.618e-001 	
        66.976	  7.390e-002 	             	
        67.011	             	  4.618e-001 	
        67.040	  7.440e-002 	             	
        67.075	             	  4.618e-001 	
        67.104	  7.420e-002 	             	
        67.139	             	  4.618e-001 	
        67.168	  7.410e-002 	             	
        67.203	             	  4.617e-001 	
        67.264	  7.420e-002 	             	
        67.267	             	  4.617e-001 	
        67.328	  7.430e-002 	             	
        67.331	             	  4.617e-001 	
        67.392	  7.410e-002 	             	
        67.427	             	  4.618e-001 	
        67.456	  7.400e-002 	             	
        67.491	             	  4.619e-001 	
        67.520	  7.400e-002 	             	
        67.555	             	  4.620e-001 	
        67.584	  7.420e-002 	             	
        67.619	             	  4.620e-001 	
        67.648	  7.440e-002 	             	
        67.683	             	  4.619e-001 	
        67.712	  7.420e-002 	             	
        67.747	             	  4.618e-001 	
        67.776	  7.410e-002 	             	
        67.811	             	  4.618e-001 	
        67.840	  7.410e-002 	             	
        67.875	             	  4.618e-001 	
        67.904	  7.410e-002 	             	
        67.939	             	  4.618e-001 	
        67.968	  7.420e-002 	             	
        68.003	             	  4.618e-001 	
        68.064	  7.460e-002 	             	
        68.067	             	  4.619e-001 	
        68.128	  7.420e-002 	             	
        68.131	             	  4.620e-001 	
        68.192	  7.430e-002 	             	
        68.227	             	  4.619e-001 	
        68.256	  7.420e-002 	             	
        68.291	             	  4.620e-001 	
        68.320	  7.410e-002 	             	
        68.355	             	  4.620e-001 	
        68.384	  7.430e-002 	             	
        68.419	             	  4.620e-001 	
        68.448	  7.440e-002 	             	
        68.483	             	  4.620e-001 	
        68.512	  7.400e-002 	             	
        68.547	             	  4.619e-001 	
        68.576	  7.400e-002 	             	
        68.611	             	  4.619e-001 	
        68.640	  7.430e-002 	             	
        68.675	             	  4.618e-001 	
        68.704	  7.420e-002 	             	
        68.739	             	  4.618e-001 	
        68.768	  7.410e-002 	             	
        68.803	             	  4.619e-001 	
        68.864	  7.420e-002 	             	
        68.867	             	  4.620e-001 	
        68.928	  7.400e-002 	             	
        68.931	             	  4.621e-001 	
