;PC Software:StarLab Version 2.10 Build 25
;Logged:20/09/2022 at 17:11:09
;File Version:3
;Graph Type:Line
;Notes:                                                            

;Channel A:Nova II Photodiode PD300-3W-v1 (s/n:763106)  NN2.52 (s/n:767396)
;Channel B:Vega Thermopile 10A-V1.1 (s/n:693380)  VG2.44 (s/n:858327)

;Channel A:Details
;Name:PD300-3W-v1
;Graph Color:RGB(0,102,255)
;Units:W
;Settings:Measuring:Power
;Settings:Wavelength:1064
;Settings:Range:AUTO
;Settings:Filter:IN

;Channel B:Details
;Name:10A-V1.1
;Graph Color:RGB(154,0,0)
;Units:W
;Settings:Measuring:Power
;Settings:Laser:.8-6
;Settings:Range:AUTO
;--------------------


;First Pulse Arrived : 20/09/2022 at 17:11:09.785000
  Timestamp   	  Channel A  	  Channel B  	
         0.000	  1.359e-002 	             	
         0.035	             	  3.525e-001 	
         0.064	  1.361e-002 	             	
         0.099	             	  3.525e-001 	
         0.128	  1.362e-002 	             	
         0.163	             	  3.526e-001 	
         0.192	  1.363e-002 	             	
         0.256	  1.362e-002 	             	
         0.259	             	  3.526e-001 	
         0.320	  1.358e-002 	             	
         0.323	             	  3.525e-001 	
         0.384	  1.357e-002 	             	
         0.387	             	  3.526e-001 	
         0.448	  1.364e-002 	             	
         0.451	             	  3.525e-001 	
         0.512	  1.360e-002 	             	
         0.515	             	  3.525e-001 	
         0.576	  1.360e-002 	             	
         0.579	             	  3.525e-001 	
         0.640	  1.365e-002 	             	
         0.643	             	  3.525e-001 	
         0.704	  1.363e-002 	             	
         0.707	             	  3.525e-001 	
         0.768	  1.366e-002 	             	
         0.771	             	  3.524e-001 	
         0.835	             	  3.524e-001 	
         0.864	  1.369e-002 	             	
         0.899	             	  3.524e-001 	
         0.928	  1.369e-002 	             	
         0.963	             	  3.524e-001 	
         0.992	  1.365e-002 	             	
         1.027	             	  3.524e-001 	
         1.056	  1.361e-002 	             	
         1.120	  1.364e-002 	             	
         1.123	             	  3.524e-001 	
         1.184	  1.368e-002 	             	
         1.187	             	  3.524e-001 	
         1.248	  1.356e-002 	             	
         1.251	             	  3.524e-001 	
         1.312	  1.366e-002 	             	
         1.315	             	  3.524e-001 	
         1.376	  1.362e-002 	             	
         1.379	             	  3.524e-001 	
         1.440	  1.366e-002 	             	
         1.443	             	  3.524e-001 	
         1.504	  1.369e-002 	             	
         1.507	             	  3.524e-001 	
         1.568	  1.369e-002 	             	
         1.571	             	  3.523e-001 	
         1.635	             	  3.523e-001 	
         1.664	  1.367e-002 	             	
         1.699	             	  3.523e-001 	
         1.728	  1.370e-002 	             	
         1.764	             	  3.524e-001 	
         1.793	  1.370e-002 	             	
         1.857	  1.364e-002 	             	
         1.860	             	  3.524e-001 	
         1.921	  1.366e-002 	             	
         1.924	             	  3.525e-001 	
         1.985	  1.366e-002 	             	
         1.988	             	  3.525e-001 	
         2.049	  1.368e-002 	             	
         2.052	             	  3.525e-001 	
         2.113	  1.365e-002 	             	
         2.116	             	  3.525e-001 	
         2.177	  1.365e-002 	             	
         2.180	             	  3.525e-001 	
         2.241	  1.366e-002 	             	
         2.244	             	  3.525e-001 	
         2.305	  1.368e-002 	             	
         2.308	             	  3.525e-001 	
         2.369	  1.368e-002 	             	
         2.372	             	  3.525e-001 	
         2.436	             	  3.524e-001 	
         2.465	  1.369e-002 	             	
         2.500	             	  3.524e-001 	
         2.529	  1.372e-002 	             	
         2.564	             	  3.525e-001 	
         2.593	  1.374e-002 	             	
         2.628	             	  3.524e-001 	
         2.657	  1.371e-002 	             	
         2.721	  1.369e-002 	             	
         2.724	             	  3.524e-001 	
         2.785	  1.371e-002 	             	
         2.788	             	  3.524e-001 	
         2.849	  1.374e-002 	             	
         2.852	             	  3.524e-001 	
         2.913	  1.368e-002 	             	
         2.916	             	  3.524e-001 	
         2.977	  1.371e-002 	             	
         2.980	             	  3.524e-001 	
         3.041	  1.369e-002 	             	
         3.044	             	  3.525e-001 	
         3.105	  1.370e-002 	             	
         3.108	             	  3.525e-001 	
         3.169	  1.370e-002 	             	
         3.172	             	  3.525e-001 	
         3.236	             	  3.525e-001 	
         3.265	  1.374e-002 	             	
         3.300	             	  3.525e-001 	
         3.329	  1.375e-002 	             	
         3.364	             	  3.525e-001 	
         3.393	  1.372e-002 	             	
         3.428	             	  3.524e-001 	
         3.457	  1.378e-002 	             	
         3.521	  1.377e-002 	             	
         3.524	             	  3.524e-001 	
         3.585	  1.373e-002 	             	
         3.588	             	  3.524e-001 	
         3.649	  1.373e-002 	             	
         3.652	             	  3.525e-001 	
         3.713	  1.372e-002 	             	
         3.716	             	  3.525e-001 	
         3.777	  1.370e-002 	             	
         3.780	             	  3.525e-001 	
         3.841	  1.368e-002 	             	
         3.844	             	  3.525e-001 	
         3.905	  1.386e-002 	             	
         3.908	             	  3.526e-001 	
         3.969	  1.377e-002 	             	
         3.972	             	  3.525e-001 	
         4.036	             	  3.525e-001 	
         4.065	  1.374e-002 	             	
         4.100	             	  3.525e-001 	
         4.129	  1.372e-002 	             	
         4.164	             	  3.525e-001 	
         4.193	  1.372e-002 	             	
         4.228	             	  3.525e-001 	
         4.257	  1.379e-002 	             	
         4.321	  1.380e-002 	             	
         4.324	             	  3.525e-001 	
         4.385	  1.376e-002 	             	
         4.388	             	  3.525e-001 	
         4.449	  1.379e-002 	             	
         4.452	             	  3.524e-001 	
         4.513	  1.375e-002 	             	
         4.516	             	  3.525e-001 	
         4.577	  1.372e-002 	             	
         4.580	             	  3.526e-001 	
         4.641	  1.375e-002 	             	
         4.644	             	  3.526e-001 	
         4.705	  1.373e-002 	             	
         4.708	             	  3.526e-001 	
         4.769	  1.372e-002 	             	
         4.772	             	  3.527e-001 	
         4.836	             	  3.527e-001 	
         4.865	  1.372e-002 	             	
         4.900	             	  3.526e-001 	
         4.929	  1.376e-002 	             	
         4.964	             	  3.525e-001 	
         4.993	  1.376e-002 	             	
         5.028	             	  3.525e-001 	
         5.057	  1.375e-002 	             	
         5.121	  1.376e-002 	             	
         5.124	             	  3.524e-001 	
         5.185	  1.376e-002 	             	
         5.188	             	  3.524e-001 	
         5.249	  1.376e-002 	             	
         5.252	             	  3.524e-001 	
         5.313	  1.373e-002 	             	
         5.316	             	  3.525e-001 	
         5.377	  1.375e-002 	             	
         5.379	             	  3.525e-001 	
         5.441	  1.384e-002 	             	
         5.444	             	  3.526e-001 	
         5.505	  1.372e-002 	             	
         5.508	             	  3.526e-001 	
         5.569	  1.377e-002 	             	
         5.572	             	  3.526e-001 	
         5.636	             	  3.527e-001 	
         5.665	  1.378e-002 	             	
         5.700	             	  3.526e-001 	
         5.729	  1.384e-002 	             	
         5.764	             	  3.526e-001 	
         5.793	  1.376e-002 	             	
         5.827	             	  3.525e-001 	
         5.857	  1.382e-002 	             	
         5.921	  1.382e-002 	             	
         5.923	             	  3.525e-001 	
         5.985	  1.382e-002 	             	
         5.988	             	  3.525e-001 	
         6.049	  1.390e-002 	             	
         6.052	             	  3.524e-001 	
         6.113	  1.376e-002 	             	
         6.115	             	  3.524e-001 	
         6.177	  1.384e-002 	             	
         6.180	             	  3.524e-001 	
         6.241	  1.382e-002 	             	
         6.244	             	  3.524e-001 	
         6.305	  1.382e-002 	             	
         6.307	             	  3.524e-001 	
         6.369	  1.380e-002 	             	
         6.372	             	  3.525e-001 	
         6.436	             	  3.525e-001 	
         6.465	  1.382e-002 	             	
         6.499	             	  3.525e-001 	
         6.529	  1.379e-002 	             	
         6.563	             	  3.525e-001 	
         6.593	  1.380e-002 	             	
         6.627	             	  3.525e-001 	
         6.657	  1.383e-002 	             	
         6.721	  1.382e-002 	             	
         6.723	             	  3.525e-001 	
         6.785	  1.385e-002 	             	
         6.787	             	  3.525e-001 	
         6.849	  1.384e-002 	             	
         6.852	             	  3.525e-001 	
         6.913	  1.384e-002 	             	
         6.915	             	  3.525e-001 	
         6.977	  1.379e-002 	             	
         6.980	             	  3.525e-001 	
         7.041	  1.382e-002 	             	
         7.043	             	  3.524e-001 	
         7.105	  1.387e-002 	             	
         7.107	             	  3.523e-001 	
         7.169	  1.379e-002 	             	
         7.171	             	  3.523e-001 	
         7.235	             	  3.523e-001 	
         7.265	  1.387e-002 	             	
         7.299	             	  3.524e-001 	
         7.329	  1.388e-002 	             	
         7.363	             	  3.524e-001 	
         7.393	  1.385e-002 	             	
         7.427	             	  3.523e-001 	
         7.457	  1.388e-002 	             	
         7.521	  1.381e-002 	             	
         7.523	             	  3.523e-001 	
         7.585	  1.387e-002 	             	
         7.587	             	  3.524e-001 	
         7.649	  1.377e-002 	             	
         7.651	             	  3.524e-001 	
         7.713	  1.371e-002 	             	
         7.715	             	  3.524e-001 	
         7.777	  1.368e-002 	             	
         7.779	             	  3.525e-001 	
         7.841	  1.360e-002 	             	
         7.843	             	  3.525e-001 	
         7.905	  1.354e-002 	             	
         7.907	             	  3.526e-001 	
         7.969	  1.353e-002 	             	
         7.971	             	  3.526e-001 	
         8.035	             	  3.526e-001 	
         8.065	  1.339e-002 	             	
         8.099	             	  3.526e-001 	
         8.129	  1.322e-002 	             	
         8.163	             	  3.525e-001 	
         8.193	  1.318e-002 	             	
         8.227	             	  3.524e-001 	
         8.257	  1.298e-002 	             	
         8.321	  1.279e-002 	             	
         8.323	             	  3.524e-001 	
         8.384	  1.271e-002 	             	
         8.387	             	  3.523e-001 	
         8.448	  1.269e-002 	             	
         8.451	             	  3.523e-001 	
         8.512	  1.281e-002 	             	
         8.515	             	  3.523e-001 	
         8.577	  1.280e-002 	             	
         8.579	             	  3.523e-001 	
         8.641	  1.295e-002 	             	
         8.643	             	  3.523e-001 	
         8.704	  1.312e-002 	             	
         8.707	             	  3.523e-001 	
         8.769	  1.314e-002 	             	
         8.771	             	  3.523e-001 	
         8.835	             	  3.523e-001 	
         8.865	  1.318e-002 	             	
         8.899	             	  3.523e-001 	
         8.929	  1.323e-002 	             	
         8.963	             	  3.522e-001 	
         8.993	  1.336e-002 	             	
         9.027	             	  3.522e-001 	
         9.057	  1.341e-002 	             	
         9.121	  1.341e-002 	             	
         9.123	             	  3.522e-001 	
         9.185	  1.343e-002 	             	
         9.187	             	  3.522e-001 	
         9.249	  1.353e-002 	             	
         9.251	             	  3.523e-001 	
         9.312	  1.360e-002 	             	
         9.315	             	  3.524e-001 	
         9.377	  1.369e-002 	             	
         9.379	             	  3.525e-001 	
         9.440	  1.370e-002 	             	
         9.443	             	  3.525e-001 	
         9.504	  1.387e-002 	             	
         9.507	             	  3.525e-001 	
         9.568	  1.406e-002 	             	
         9.571	             	  3.524e-001 	
         9.635	             	  3.523e-001 	
         9.664	  1.417e-002 	             	
         9.699	             	  3.523e-001 	
         9.728	  1.434e-002 	             	
         9.763	             	  3.524e-001 	
         9.793	  1.446e-002 	             	
         9.827	             	  3.524e-001 	
         9.856	  1.464e-002 	             	
         9.920	  1.489e-002 	             	
         9.923	             	  3.524e-001 	
         9.984	  1.501e-002 	             	
         9.987	             	  3.525e-001 	
        10.048	  1.530e-002 	             	
        10.051	             	  3.525e-001 	
        10.112	  1.553e-002 	             	
        10.115	             	  3.524e-001 	
        10.176	  1.577e-002 	             	
        10.179	             	  3.524e-001 	
        10.240	  1.601e-002 	             	
        10.243	             	  3.523e-001 	
        10.304	  1.637e-002 	             	
        10.307	             	  3.523e-001 	
        10.368	  1.643e-002 	             	
        10.371	             	  3.523e-001 	
        10.435	             	  3.523e-001 	
        10.464	  1.654e-002 	             	
        10.499	             	  3.524e-001 	
        10.528	  1.657e-002 	             	
        10.563	             	  3.524e-001 	
        10.592	  1.668e-002 	             	
        10.627	             	  3.524e-001 	
        10.657	  1.690e-002 	             	
        10.720	  1.698e-002 	             	
        10.723	             	  3.524e-001 	
        10.784	  1.709e-002 	             	
        10.787	             	  3.524e-001 	
        10.848	  1.717e-002 	             	
        10.851	             	  3.524e-001 	
        10.912	  1.725e-002 	             	
        10.915	             	  3.525e-001 	
        10.976	  1.740e-002 	             	
        10.979	             	  3.526e-001 	
        11.040	  1.759e-002 	             	
        11.043	             	  3.526e-001 	
        11.104	  1.745e-002 	             	
        11.107	             	  3.526e-001 	
        11.168	  1.746e-002 	             	
        11.171	             	  3.526e-001 	
        11.235	             	  3.526e-001 	
        11.264	  1.749e-002 	             	
        11.299	             	  3.526e-001 	
        11.328	  1.730e-002 	             	
        11.363	             	  3.526e-001 	
        11.392	  1.714e-002 	             	
        11.427	             	  3.525e-001 	
        11.456	  1.713e-002 	             	
        11.520	  1.695e-002 	             	
        11.523	             	  3.526e-001 	
        11.584	  1.696e-002 	             	
        11.587	             	  3.527e-001 	
        11.649	  1.699e-002 	             	
        11.651	             	  3.527e-001 	
        11.712	  1.691e-002 	             	
        11.715	             	  3.527e-001 	
        11.776	  1.678e-002 	             	
        11.779	             	  3.527e-001 	
        11.840	  1.661e-002 	             	
        11.843	             	  3.526e-001 	
        11.904	  1.644e-002 	             	
        11.907	             	  3.526e-001 	
        11.968	  1.603e-002 	             	
        11.971	             	  3.525e-001 	
        12.035	             	  3.524e-001 	
        12.064	  1.578e-002 	             	
        12.099	             	  3.524e-001 	
        12.128	  1.552e-002 	             	
        12.163	             	  3.524e-001 	
        12.192	  1.536e-002 	             	
        12.227	             	  3.523e-001 	
        12.256	  1.522e-002 	             	
        12.320	  1.518e-002 	             	
        12.323	             	  3.523e-001 	
        12.384	  1.508e-002 	             	
        12.387	             	  3.523e-001 	
        12.448	  1.501e-002 	             	
        12.451	             	  3.522e-001 	
        12.512	  1.481e-002 	             	
        12.515	             	  3.522e-001 	
        12.576	  1.472e-002 	             	
        12.579	             	  3.521e-001 	
        12.640	  1.463e-002 	             	
        12.643	             	  3.522e-001 	
        12.704	  1.451e-002 	             	
        12.707	             	  3.521e-001 	
        12.768	  1.453e-002 	             	
        12.771	             	  3.521e-001 	
        12.835	             	  3.522e-001 	
        12.864	  1.449e-002 	             	
        12.899	             	  3.522e-001 	
        12.928	  1.442e-002 	             	
        12.963	             	  3.522e-001 	
        12.992	  1.449e-002 	             	
        13.027	             	  3.522e-001 	
        13.056	  1.438e-002 	             	
        13.120	  1.433e-002 	             	
        13.123	             	  3.522e-001 	
        13.184	  1.432e-002 	             	
        13.187	             	  3.522e-001 	
        13.248	  1.403e-002 	             	
        13.251	             	  3.522e-001 	
        13.312	  1.394e-002 	             	
        13.315	             	  3.523e-001 	
        13.376	  1.407e-002 	             	
        13.379	             	  3.522e-001 	
        13.440	  1.398e-002 	             	
        13.443	             	  3.522e-001 	
        13.504	  1.404e-002 	             	
        13.507	             	  3.521e-001 	
        13.568	  1.396e-002 	             	
        13.571	             	  3.521e-001 	
        13.635	             	  3.521e-001 	
        13.664	  1.399e-002 	             	
        13.699	             	  3.522e-001 	
        13.728	  1.404e-002 	             	
        13.763	             	  3.522e-001 	
        13.792	  1.400e-002 	             	
        13.827	             	  3.522e-001 	
        13.856	  1.398e-002 	             	
        13.891	             	  3.522e-001 	
        13.920	  1.400e-002 	             	
        13.984	  1.397e-002 	             	
        13.987	             	  3.523e-001 	
        14.048	  1.394e-002 	             	
        14.051	             	  3.523e-001 	
        14.112	  1.393e-002 	             	
        14.115	             	  3.524e-001 	
        14.176	  1.408e-002 	             	
        14.179	             	  3.524e-001 	
        14.240	  1.416e-002 	             	
        14.243	             	  3.524e-001 	
        14.304	  1.418e-002 	             	
        14.307	             	  3.523e-001 	
        14.368	  1.434e-002 	             	
        14.371	             	  3.522e-001 	
        14.432	  1.440e-002 	             	
        14.435	             	  3.522e-001 	
        14.499	             	  3.522e-001 	
        14.528	  1.450e-002 	             	
        14.563	             	  3.522e-001 	
        14.592	  1.456e-002 	             	
        14.627	             	  3.522e-001 	
        14.656	  1.457e-002 	             	
        14.691	             	  3.522e-001 	
        14.720	  1.466e-002 	             	
        14.784	  1.480e-002 	             	
        14.787	             	  3.522e-001 	
        14.848	  1.486e-002 	             	
        14.851	             	  3.522e-001 	
        14.912	  1.490e-002 	             	
        14.915	             	  3.522e-001 	
        14.976	  1.500e-002 	             	
        14.979	             	  3.521e-001 	
        15.040	  1.499e-002 	             	
        15.043	             	  3.522e-001 	
        15.104	  1.499e-002 	             	
        15.107	             	  3.522e-001 	
        15.168	  1.499e-002 	             	
        15.171	             	  3.521e-001 	
        15.232	  1.501e-002 	             	
        15.235	             	  3.520e-001 	
        15.299	             	  3.520e-001 	
        15.328	  1.497e-002 	             	
        15.363	             	  3.521e-001 	
        15.392	  1.509e-002 	             	
        15.427	             	  3.521e-001 	
        15.456	  1.512e-002 	             	
        15.491	             	  3.521e-001 	
        15.520	  1.514e-002 	             	
        15.584	  1.533e-002 	             	
        15.587	             	  3.521e-001 	
        15.648	  1.546e-002 	             	
        15.651	             	  3.522e-001 	
        15.712	  1.561e-002 	             	
        15.715	             	  3.523e-001 	
        15.776	  1.561e-002 	             	
        15.779	             	  3.523e-001 	
        15.840	  1.576e-002 	             	
        15.843	             	  3.523e-001 	
        15.904	  1.587e-002 	             	
        15.907	             	  3.523e-001 	
        15.968	  1.602e-002 	             	
        15.971	             	  3.524e-001 	
        16.032	  1.607e-002 	             	
        16.035	             	  3.524e-001 	
        16.099	             	  3.524e-001 	
        16.128	  1.617e-002 	             	
        16.163	             	  3.525e-001 	
        16.192	  1.635e-002 	             	
        16.227	             	  3.524e-001 	
        16.256	  1.637e-002 	             	
        16.291	             	  3.524e-001 	
        16.320	  1.633e-002 	             	
        16.384	  1.630e-002 	             	
        16.387	             	  3.523e-001 	
        16.448	  1.628e-002 	             	
        16.451	             	  3.523e-001 	
        16.512	  1.641e-002 	             	
        16.515	             	  3.523e-001 	
        16.576	  1.632e-002 	             	
        16.579	             	  3.522e-001 	
        16.640	  1.630e-002 	             	
        16.643	             	  3.523e-001 	
        16.704	  1.618e-002 	             	
        16.707	             	  3.523e-001 	
        16.768	  1.615e-002 	             	
        16.771	             	  3.523e-001 	
        16.832	  1.604e-002 	             	
        16.835	             	  3.524e-001 	
        16.899	             	  3.524e-001 	
        16.928	  1.583e-002 	             	
        16.963	             	  3.524e-001 	
        16.992	  1.573e-002 	             	
        17.027	             	  3.524e-001 	
        17.056	  1.568e-002 	             	
        17.091	             	  3.524e-001 	
        17.120	  1.557e-002 	             	
        17.184	  1.547e-002 	             	
        17.187	             	  3.524e-001 	
        17.248	  1.536e-002 	             	
        17.251	             	  3.524e-001 	
        17.312	  1.517e-002 	             	
        17.315	             	  3.524e-001 	
        17.376	  1.507e-002 	             	
        17.379	             	  3.525e-001 	
        17.440	  1.495e-002 	             	
        17.443	             	  3.525e-001 	
        17.504	  1.485e-002 	             	
        17.507	             	  3.525e-001 	
        17.568	  1.475e-002 	             	
        17.571	             	  3.525e-001 	
        17.632	  1.466e-002 	             	
        17.635	             	  3.524e-001 	
        17.699	             	  3.524e-001 	
        17.728	  1.448e-002 	             	
        17.763	             	  3.523e-001 	
        17.792	  1.443e-002 	             	
        17.827	             	  3.523e-001 	
        17.856	  1.423e-002 	             	
        17.891	             	  3.523e-001 	
        17.920	  1.415e-002 	             	
        17.984	  1.411e-002 	             	
        17.987	             	  3.524e-001 	
        18.048	  1.401e-002 	             	
        18.051	             	  3.525e-001 	
        18.112	  1.394e-002 	             	
        18.115	             	  3.525e-001 	
        18.176	  1.409e-002 	             	
        18.179	             	  3.526e-001 	
        18.240	  1.404e-002 	             	
        18.243	             	  3.526e-001 	
        18.304	  1.397e-002 	             	
        18.307	             	  3.525e-001 	
        18.368	  1.395e-002 	             	
        18.371	             	  3.526e-001 	
        18.432	  1.390e-002 	             	
        18.435	             	  3.526e-001 	
        18.499	             	  3.526e-001 	
        18.528	  1.397e-002 	             	
        18.563	             	  3.526e-001 	
        18.592	  1.399e-002 	             	
        18.627	             	  3.526e-001 	
        18.656	  1.396e-002 	             	
        18.691	             	  3.526e-001 	
        18.720	  1.398e-002 	             	
        18.784	  1.403e-002 	             	
        18.787	             	  3.526e-001 	
        18.848	  1.401e-002 	             	
        18.851	             	  3.526e-001 	
        18.912	  1.392e-002 	             	
        18.915	             	  3.526e-001 	
        18.976	  1.376e-002 	             	
        18.979	             	  3.526e-001 	
        19.040	  1.382e-002 	             	
        19.043	             	  3.526e-001 	
        19.104	  1.416e-002 	             	
        19.107	             	  3.526e-001 	
        19.168	  1.423e-002 	             	
        19.171	             	  3.527e-001 	
        19.233	  1.425e-002 	             	
        19.236	             	  3.527e-001 	
        19.300	             	  3.526e-001 	
        19.329	  1.420e-002 	             	
        19.364	             	  3.526e-001 	
        19.393	  1.435e-002 	             	
        19.428	             	  3.525e-001 	
        19.457	  1.440e-002 	             	
        19.492	             	  3.525e-001 	
        19.521	  1.441e-002 	             	
        19.585	  1.437e-002 	             	
        19.588	             	  3.524e-001 	
        19.649	  1.432e-002 	             	
        19.652	             	  3.525e-001 	
        19.713	  1.425e-002 	             	
        19.716	             	  3.525e-001 	
        19.777	  1.427e-002 	             	
        19.780	             	  3.526e-001 	
        19.841	  1.419e-002 	             	
        19.844	             	  3.527e-001 	
        19.905	  1.424e-002 	             	
        19.908	             	  3.527e-001 	
        19.969	  1.423e-002 	             	
        19.972	             	  3.527e-001 	
        20.033	  1.423e-002 	             	
        20.036	             	  3.527e-001 	
        20.100	             	  3.526e-001 	
        20.129	  1.430e-002 	             	
        20.164	             	  3.525e-001 	
        20.193	  1.431e-002 	             	
        20.228	             	  3.524e-001 	
        20.257	  1.441e-002 	             	
        20.292	             	  3.523e-001 	
        20.321	  1.454e-002 	             	
        20.385	  1.467e-002 	             	
        20.388	             	  3.522e-001 	
        20.449	  1.474e-002 	             	
        20.452	             	  3.522e-001 	
        20.513	  1.482e-002 	             	
        20.516	             	  3.523e-001 	
        20.577	  1.490e-002 	             	
        20.580	             	  3.523e-001 	
        20.641	  1.492e-002 	             	
        20.644	             	  3.523e-001 	
        20.705	  1.495e-002 	             	
        20.708	             	  3.523e-001 	
        20.769	  1.504e-002 	             	
        20.772	             	  3.524e-001 	
        20.833	  1.513e-002 	             	
        20.836	             	  3.525e-001 	
        20.900	             	  3.525e-001 	
        20.929	  1.528e-002 	             	
        20.964	             	  3.526e-001 	
        20.993	  1.530e-002 	             	
        21.028	             	  3.526e-001 	
        21.057	  1.532e-002 	             	
        21.092	             	  3.527e-001 	
        21.121	  1.540e-002 	             	
        21.185	  1.551e-002 	             	
        21.188	             	  3.527e-001 	
        21.249	  1.556e-002 	             	
        21.252	             	  3.526e-001 	
        21.313	  1.568e-002 	             	
        21.316	             	  3.525e-001 	
        21.377	  1.587e-002 	             	
        21.380	             	  3.525e-001 	
        21.441	  1.581e-002 	             	
        21.444	             	  3.524e-001 	
        21.505	  1.597e-002 	             	
        21.508	             	  3.524e-001 	
        21.569	  1.599e-002 	             	
        21.572	             	  3.524e-001 	
        21.633	  1.597e-002 	             	
        21.636	             	  3.523e-001 	
        21.700	             	  3.523e-001 	
        21.729	  1.593e-002 	             	
        21.764	             	  3.523e-001 	
        21.793	  1.593e-002 	             	
        21.828	             	  3.523e-001 	
        21.857	  1.591e-002 	             	
        21.892	             	  3.522e-001 	
        21.921	  1.588e-002 	             	
        21.985	  1.586e-002 	             	
        21.988	             	  3.523e-001 	
        22.049	  1.575e-002 	             	
        22.052	             	  3.522e-001 	
        22.113	  1.556e-002 	             	
        22.116	             	  3.522e-001 	
        22.177	  1.548e-002 	             	
        22.180	             	  3.522e-001 	
        22.241	  1.539e-002 	             	
        22.244	             	  3.521e-001 	
        22.305	  1.528e-002 	             	
        22.308	             	  3.521e-001 	
        22.369	  1.526e-002 	             	
        22.372	             	  3.521e-001 	
        22.433	  1.517e-002 	             	
        22.436	             	  3.522e-001 	
        22.500	             	  3.523e-001 	
        22.529	  1.498e-002 	             	
        22.564	             	  3.523e-001 	
        22.593	  1.485e-002 	             	
        22.628	             	  3.524e-001 	
        22.657	  1.465e-002 	             	
        22.692	             	  3.523e-001 	
        22.721	  1.454e-002 	             	
        22.785	  1.442e-002 	             	
        22.788	             	  3.524e-001 	
        22.849	  1.440e-002 	             	
        22.852	             	  3.523e-001 	
        22.913	  1.431e-002 	             	
        22.916	             	  3.523e-001 	
        22.977	  1.420e-002 	             	
        22.979	             	  3.522e-001 	
        23.041	  1.402e-002 	             	
        23.044	             	  3.521e-001 	
        23.105	  1.371e-002 	             	
        23.108	             	  3.520e-001 	
        23.169	  1.365e-002 	             	
        23.172	             	  3.520e-001 	
        23.233	  1.361e-002 	             	
        23.236	             	  3.520e-001 	
        23.300	             	  3.521e-001 	
        23.329	  1.360e-002 	             	
        23.364	             	  3.521e-001 	
        23.393	  1.363e-002 	             	
        23.428	             	  3.522e-001 	
        23.457	  1.359e-002 	             	
        23.492	             	  3.522e-001 	
        23.521	  1.357e-002 	             	
        23.585	  1.362e-002 	             	
        23.587	             	  3.522e-001 	
        23.649	  1.360e-002 	             	
        23.652	             	  3.523e-001 	
        23.713	  1.364e-002 	             	
        23.716	             	  3.523e-001 	
        23.777	  1.366e-002 	             	
        23.780	             	  3.524e-001 	
        23.841	  1.382e-002 	             	
        23.844	             	  3.524e-001 	
        23.905	  1.376e-002 	             	
        23.908	             	  3.524e-001 	
        23.969	  1.385e-002 	             	
        23.971	             	  3.524e-001 	
        24.033	  1.386e-002 	             	
        24.036	             	  3.524e-001 	
        24.100	             	  3.524e-001 	
        24.129	  1.399e-002 	             	
        24.163	             	  3.524e-001 	
        24.193	  1.408e-002 	             	
        24.228	             	  3.525e-001 	
        24.257	  1.401e-002 	             	
        24.291	             	  3.525e-001 	
        24.321	  1.416e-002 	             	
        24.385	  1.410e-002 	             	
        24.387	             	  3.525e-001 	
        24.449	  1.401e-002 	             	
        24.452	             	  3.525e-001 	
        24.513	  1.394e-002 	             	
        24.515	             	  3.526e-001 	
        24.577	  1.384e-002 	             	
        24.579	             	  3.526e-001 	
        24.641	  1.378e-002 	             	
        24.643	             	  3.526e-001 	
        24.705	  1.380e-002 	             	
        24.707	             	  3.527e-001 	
        24.769	  1.374e-002 	             	
        24.771	             	  3.526e-001 	
        24.833	  1.370e-002 	             	
        24.835	             	  3.526e-001 	
        24.899	             	  3.525e-001 	
        24.929	  1.373e-002 	             	
        24.964	             	  3.524e-001 	
        24.993	  1.372e-002 	             	
        25.027	             	  3.523e-001 	
        25.057	  1.363e-002 	             	
        25.091	             	  3.523e-001 	
        25.121	  1.361e-002 	             	
        25.185	  1.355e-002 	             	
        25.187	             	  3.523e-001 	
        25.249	  1.356e-002 	             	
        25.251	             	  3.523e-001 	
        25.313	  1.353e-002 	             	
        25.315	             	  3.524e-001 	
        25.377	  1.348e-002 	             	
        25.379	             	  3.523e-001 	
        25.441	  1.351e-002 	             	
        25.443	             	  3.523e-001 	
        25.505	  1.347e-002 	             	
        25.507	             	  3.523e-001 	
        25.569	  1.360e-002 	             	
        25.571	             	  3.524e-001 	
        25.632	  1.361e-002 	             	
        25.635	             	  3.524e-001 	
        25.699	             	  3.524e-001 	
        25.729	  1.364e-002 	             	
        25.763	             	  3.525e-001 	
        25.793	  1.377e-002 	             	
        25.827	             	  3.525e-001 	
        25.857	  1.378e-002 	             	
        25.891	             	  3.526e-001 	
        25.921	  1.375e-002 	             	
        25.985	  1.375e-002 	             	
        25.987	             	  3.525e-001 	
        26.049	  1.383e-002 	             	
        26.051	             	  3.525e-001 	
        26.113	  1.387e-002 	             	
        26.115	             	  3.525e-001 	
        26.177	  1.395e-002 	             	
        26.179	             	  3.524e-001 	
        26.240	  1.404e-002 	             	
        26.243	             	  3.524e-001 	
        26.305	  1.413e-002 	             	
        26.307	             	  3.524e-001 	
        26.368	  1.421e-002 	             	
        26.371	             	  3.524e-001 	
        26.433	  1.425e-002 	             	
        26.435	             	  3.525e-001 	
        26.499	             	  3.524e-001 	
        26.528	  1.414e-002 	             	
        26.563	             	  3.524e-001 	
        26.592	  1.412e-002 	             	
        26.627	             	  3.524e-001 	
        26.656	  1.404e-002 	             	
        26.691	             	  3.523e-001 	
        26.720	  1.399e-002 	             	
        26.755	             	  3.523e-001 	
        26.784	  1.380e-002 	             	
        26.848	  1.379e-002 	             	
        26.851	             	  3.522e-001 	
        26.912	  1.371e-002 	             	
        26.915	             	  3.522e-001 	
        26.976	  1.374e-002 	             	
        26.979	             	  3.523e-001 	
        27.040	  1.367e-002 	             	
        27.043	             	  3.523e-001 	
        27.104	  1.359e-002 	             	
        27.107	             	  3.523e-001 	
        27.169	  1.360e-002 	             	
        27.171	             	  3.523e-001 	
        27.232	  1.350e-002 	             	
        27.235	             	  3.522e-001 	
        27.296	  1.345e-002 	             	
        27.299	             	  3.522e-001 	
        27.363	             	  3.522e-001 	
        27.392	  1.339e-002 	             	
        27.427	             	  3.523e-001 	
        27.456	  1.331e-002 	             	
        27.491	             	  3.524e-001 	
        27.520	  1.335e-002 	             	
        27.555	             	  3.524e-001 	
        27.584	  1.321e-002 	             	
        27.648	  1.319e-002 	             	
        27.651	             	  3.524e-001 	
        27.712	  1.317e-002 	             	
        27.715	             	  3.524e-001 	
        27.776	  1.302e-002 	             	
        27.779	             	  3.524e-001 	
        27.840	  1.294e-002 	             	
        27.843	             	  3.524e-001 	
        27.904	  1.294e-002 	             	
        27.907	             	  3.524e-001 	
        27.969	  1.288e-002 	             	
        27.971	             	  3.524e-001 	
        28.032	  1.277e-002 	             	
        28.035	             	  3.523e-001 	
        28.096	  1.272e-002 	             	
        28.099	             	  3.523e-001 	
        28.163	             	  3.524e-001 	
        28.192	  1.273e-002 	             	
        28.227	             	  3.524e-001 	
        28.256	  1.265e-002 	             	
        28.291	             	  3.524e-001 	
        28.320	  1.253e-002 	             	
        28.355	             	  3.525e-001 	
        28.384	  1.255e-002 	             	
        28.448	  1.255e-002 	             	
        28.451	             	  3.525e-001 	
        28.512	  1.243e-002 	             	
        28.515	             	  3.525e-001 	
        28.576	  1.256e-002 	             	
        28.579	             	  3.525e-001 	
        28.640	  1.261e-002 	             	
        28.643	             	  3.525e-001 	
        28.704	  1.271e-002 	             	
        28.707	             	  3.525e-001 	
        28.768	  1.279e-002 	             	
        28.771	             	  3.525e-001 	
        28.832	  1.284e-002 	             	
        28.835	             	  3.524e-001 	
        28.896	  1.285e-002 	             	
        28.899	             	  3.523e-001 	
        28.963	             	  3.523e-001 	
        28.992	  1.291e-002 	             	
        29.027	             	  3.522e-001 	
        29.056	  1.292e-002 	             	
        29.091	             	  3.522e-001 	
        29.120	  1.298e-002 	             	
        29.155	             	  3.523e-001 	
        29.184	  1.306e-002 	             	
        29.248	  1.314e-002 	             	
        29.251	             	  3.524e-001 	
        29.312	  1.373e-002 	             	
        29.315	             	  3.525e-001 	
        29.376	  1.377e-002 	             	
        29.379	             	  3.526e-001 	
        29.440	  1.368e-002 	             	
        29.443	             	  3.526e-001 	
        29.504	  1.344e-002 	             	
        29.507	             	  3.526e-001 	
        29.568	  1.348e-002 	             	
        29.571	             	  3.526e-001 	
        29.632	  1.343e-002 	             	
        29.635	             	  3.526e-001 	
        29.696	  1.333e-002 	             	
        29.699	             	  3.525e-001 	
        29.763	             	  3.525e-001 	
        29.792	  1.329e-002 	             	
        29.827	             	  3.525e-001 	
        29.856	  1.325e-002 	             	
        29.891	             	  3.525e-001 	
        29.920	  1.316e-002 	             	
        29.955	             	  3.524e-001 	
        29.984	  1.306e-002 	             	
        30.048	  1.302e-002 	             	
        30.051	             	  3.524e-001 	
        30.112	  1.294e-002 	             	
        30.115	             	  3.523e-001 	
        30.176	  1.283e-002 	             	
        30.179	             	  3.523e-001 	
        30.240	  1.271e-002 	             	
        30.243	             	  3.524e-001 	
        30.304	  1.255e-002 	             	
        30.307	             	  3.524e-001 	
        30.368	  1.252e-002 	             	
        30.371	             	  3.524e-001 	
        30.432	  1.246e-002 	             	
        30.435	             	  3.524e-001 	
        30.496	  1.238e-002 	             	
        30.499	             	  3.524e-001 	
        30.563	             	  3.524e-001 	
        30.592	  1.236e-002 	             	
        30.628	             	  3.525e-001 	
        30.656	  1.226e-002 	             	
        30.691	             	  3.525e-001 	
        30.720	  1.214e-002 	             	
        30.755	             	  3.525e-001 	
        30.784	  1.222e-002 	             	
        30.848	  1.223e-002 	             	
        30.851	             	  3.525e-001 	
        30.912	  1.223e-002 	             	
        30.915	             	  3.525e-001 	
        30.976	  1.229e-002 	             	
        30.979	             	  3.525e-001 	
        31.040	  1.234e-002 	             	
        31.043	             	  3.525e-001 	
        31.104	  1.233e-002 	             	
        31.107	             	  3.525e-001 	
        31.168	  1.233e-002 	             	
        31.171	             	  3.524e-001 	
        31.232	  1.237e-002 	             	
        31.235	             	  3.524e-001 	
        31.296	  1.237e-002 	             	
        31.299	             	  3.524e-001 	
        31.363	             	  3.523e-001 	
        31.392	  1.238e-002 	             	
        31.427	             	  3.523e-001 	
        31.456	  1.241e-002 	             	
        31.491	             	  3.523e-001 	
        31.520	  1.255e-002 	             	
        31.555	             	  3.523e-001 	
        31.584	  1.258e-002 	             	
        31.648	  1.257e-002 	             	
        31.651	             	  3.523e-001 	
        31.712	  1.249e-002 	             	
        31.715	             	  3.523e-001 	
        31.776	  1.245e-002 	             	
        31.779	             	  3.523e-001 	
        31.840	  1.253e-002 	             	
        31.843	             	  3.524e-001 	
        31.904	  1.244e-002 	             	
        31.907	             	  3.524e-001 	
        31.968	  1.241e-002 	             	
        31.971	             	  3.524e-001 	
        32.032	  1.249e-002 	             	
        32.035	             	  3.525e-001 	
        32.096	  1.255e-002 	             	
        32.099	             	  3.525e-001 	
        32.163	             	  3.526e-001 	
        32.192	  1.255e-002 	             	
        32.227	             	  3.526e-001 	
        32.256	  1.251e-002 	             	
        32.291	             	  3.526e-001 	
        32.320	  1.241e-002 	             	
        32.355	             	  3.525e-001 	
        32.384	  1.230e-002 	             	
        32.448	  1.206e-002 	             	
        32.451	             	  3.525e-001 	
        32.512	  1.192e-002 	             	
        32.515	             	  3.525e-001 	
        32.576	  1.185e-002 	             	
        32.579	             	  3.525e-001 	
        32.640	  1.174e-002 	             	
        32.643	             	  3.526e-001 	
        32.704	  1.173e-002 	             	
        32.707	             	  3.526e-001 	
        32.768	  1.165e-002 	             	
        32.771	             	  3.526e-001 	
        32.832	  1.160e-002 	             	
        32.835	             	  3.526e-001 	
        32.896	  1.143e-002 	             	
        32.899	             	  3.527e-001 	
        32.963	             	  3.526e-001 	
        32.992	  1.133e-002 	             	
        33.027	             	  3.527e-001 	
        33.056	  1.124e-002 	             	
        33.091	             	  3.526e-001 	
        33.120	  1.122e-002 	             	
        33.155	             	  3.526e-001 	
        33.184	  1.122e-002 	             	
        33.248	  1.121e-002 	             	
        33.251	             	  3.525e-001 	
        33.312	  1.120e-002 	             	
        33.315	             	  3.525e-001 	
        33.376	  1.119e-002 	             	
        33.379	             	  3.524e-001 	
        33.440	  1.122e-002 	             	
        33.443	             	  3.524e-001 	
        33.504	  1.124e-002 	             	
        33.507	             	  3.525e-001 	
        33.568	  1.127e-002 	             	
        33.571	             	  3.525e-001 	
        33.632	  1.134e-002 	             	
        33.635	             	  3.525e-001 	
        33.696	  1.134e-002 	             	
        33.699	             	  3.525e-001 	
        33.763	             	  3.525e-001 	
        33.792	  1.144e-002 	             	
        33.827	             	  3.525e-001 	
        33.856	  1.142e-002 	             	
        33.891	             	  3.525e-001 	
        33.920	  1.146e-002 	             	
        33.955	             	  3.526e-001 	
        33.984	  1.146e-002 	             	
        34.048	  1.161e-002 	             	
        34.051	             	  3.526e-001 	
        34.112	  1.163e-002 	             	
        34.115	             	  3.526e-001 	
        34.176	  1.172e-002 	             	
        34.179	             	  3.526e-001 	
        34.240	  1.220e-002 	             	
        34.243	             	  3.526e-001 	
        34.304	  1.239e-002 	             	
        34.307	             	  3.526e-001 	
        34.368	  1.243e-002 	             	
        34.371	             	  3.526e-001 	
        34.432	  1.291e-002 	             	
        34.435	             	  3.526e-001 	
        34.496	  1.311e-002 	             	
        34.499	             	  3.526e-001 	
        34.563	             	  3.526e-001 	
        34.592	  1.316e-002 	             	
        34.627	             	  3.526e-001 	
        34.656	  1.326e-002 	             	
        34.691	             	  3.526e-001 	
        34.720	  1.330e-002 	             	
        34.755	             	  3.526e-001 	
        34.784	  1.316e-002 	             	
        34.848	  1.305e-002 	             	
        34.851	             	  3.526e-001 	
        34.912	  1.301e-002 	             	
        34.915	             	  3.525e-001 	
        34.976	  1.293e-002 	             	
        34.979	             	  3.525e-001 	
        35.040	  1.291e-002 	             	
        35.043	             	  3.525e-001 	
        35.104	  1.283e-002 	             	
        35.107	             	  3.526e-001 	
        35.168	  1.283e-002 	             	
        35.171	             	  3.526e-001 	
        35.232	  1.271e-002 	             	
        35.235	             	  3.526e-001 	
        35.296	  1.260e-002 	             	
        35.299	             	  3.527e-001 	
        35.363	             	  3.527e-001 	
        35.392	  1.261e-002 	             	
        35.427	             	  3.527e-001 	
        35.456	  1.245e-002 	             	
        35.491	             	  3.526e-001 	
        35.520	  1.230e-002 	             	
        35.555	             	  3.525e-001 	
        35.584	  1.215e-002 	             	
        35.648	  1.199e-002 	             	
        35.651	             	  3.524e-001 	
        35.712	  1.185e-002 	             	
        35.715	             	  3.524e-001 	
        35.776	  1.172e-002 	             	
        35.779	             	  3.523e-001 	
        35.840	  1.156e-002 	             	
        35.843	             	  3.523e-001 	
        35.904	  1.145e-002 	             	
        35.907	             	  3.524e-001 	
        35.968	  1.131e-002 	             	
        35.971	             	  3.525e-001 	
        36.032	  1.123e-002 	             	
        36.035	             	  3.525e-001 	
        36.096	  1.117e-002 	             	
        36.099	             	  3.525e-001 	
        36.163	             	  3.526e-001 	
        36.192	  1.110e-002 	             	
        36.227	             	  3.526e-001 	
        36.256	  1.110e-002 	             	
        36.291	             	  3.526e-001 	
        36.320	  1.113e-002 	             	
        36.355	             	  3.525e-001 	
        36.384	  1.110e-002 	             	
        36.448	  1.110e-002 	             	
        36.451	             	  3.526e-001 	
        36.512	  1.110e-002 	             	
        36.515	             	  3.526e-001 	
        36.576	  1.112e-002 	             	
        36.579	             	  3.526e-001 	
        36.640	  1.111e-002 	             	
        36.643	             	  3.526e-001 	
        36.705	  1.117e-002 	             	
        36.708	             	  3.525e-001 	
        36.769	  1.119e-002 	             	
        36.772	             	  3.525e-001 	
        36.833	  1.126e-002 	             	
        36.836	             	  3.524e-001 	
        36.897	  1.134e-002 	             	
        36.900	             	  3.525e-001 	
        36.964	             	  3.524e-001 	
        36.993	  1.134e-002 	             	
        37.028	             	  3.524e-001 	
        37.057	  1.142e-002 	             	
        37.092	             	  3.524e-001 	
        37.121	  1.152e-002 	             	
        37.156	             	  3.524e-001 	
        37.185	  1.157e-002 	             	
        37.249	  1.157e-002 	             	
        37.252	             	  3.524e-001 	
        37.313	  1.162e-002 	             	
        37.316	             	  3.524e-001 	
        37.377	  1.163e-002 	             	
        37.380	             	  3.525e-001 	
        37.441	  1.163e-002 	             	
        37.444	             	  3.525e-001 	
        37.505	  1.162e-002 	             	
        37.508	             	  3.525e-001 	
        37.569	  1.150e-002 	             	
        37.572	             	  3.525e-001 	
        37.633	  1.149e-002 	             	
        37.636	             	  3.525e-001 	
        37.697	  1.132e-002 	             	
        37.700	             	  3.524e-001 	
        37.764	             	  3.524e-001 	
        37.793	  1.123e-002 	             	
        37.828	             	  3.524e-001 	
        37.857	  1.122e-002 	             	
        37.892	             	  3.525e-001 	
        37.921	  1.120e-002 	             	
        37.956	             	  3.525e-001 	
        37.985	  1.115e-002 	             	
        38.049	  1.113e-002 	             	
        38.052	             	  3.525e-001 	
        38.113	  1.108e-002 	             	
        38.116	             	  3.526e-001 	
        38.177	  1.099e-002 	             	
        38.180	             	  3.525e-001 	
        38.241	  1.092e-002 	             	
        38.244	             	  3.526e-001 	
        38.305	  1.095e-002 	             	
        38.308	             	  3.526e-001 	
        38.369	  1.096e-002 	             	
        38.372	             	  3.527e-001 	
        38.433	  1.096e-002 	             	
        38.436	             	  3.526e-001 	
        38.497	  1.100e-002 	             	
        38.500	             	  3.526e-001 	
        38.564	             	  3.526e-001 	
        38.593	  1.098e-002 	             	
        38.628	             	  3.526e-001 	
        38.657	  1.106e-002 	             	
        38.692	             	  3.526e-001 	
        38.721	  1.114e-002 	             	
        38.756	             	  3.526e-001 	
        38.785	  1.115e-002 	             	
        38.820	             	  3.526e-001 	
        38.849	  1.118e-002 	             	
        38.913	  1.120e-002 	             	
        38.916	             	  3.525e-001 	
        38.977	  1.137e-002 	             	
        38.980	             	  3.525e-001 	
        39.041	  1.144e-002 	             	
        39.044	             	  3.525e-001 	
        39.105	  1.198e-002 	             	
        39.108	             	  3.525e-001 	
        39.169	  1.208e-002 	             	
        39.172	             	  3.525e-001 	
        39.233	  1.212e-002 	             	
        39.236	             	  3.524e-001 	
        39.297	  1.220e-002 	             	
        39.300	             	  3.525e-001 	
        39.364	             	  3.525e-001 	
        39.393	  1.220e-002 	             	
        39.428	             	  3.525e-001 	
        39.457	  1.221e-002 	             	
        39.492	             	  3.525e-001 	
        39.521	  1.218e-002 	             	
        39.556	             	  3.526e-001 	
        39.585	  1.220e-002 	             	
        39.649	  1.226e-002 	             	
        39.652	             	  3.526e-001 	
        39.713	  1.224e-002 	             	
        39.716	             	  3.526e-001 	
        39.777	  1.239e-002 	             	
        39.780	             	  3.526e-001 	
        39.841	  1.239e-002 	             	
        39.844	             	  3.525e-001 	
        39.905	  1.240e-002 	             	
        39.908	             	  3.525e-001 	
        39.969	  1.240e-002 	             	
        39.972	             	  3.525e-001 	
        40.033	  1.243e-002 	             	
        40.036	             	  3.526e-001 	
        40.097	  1.238e-002 	             	
        40.100	             	  3.526e-001 	
        40.164	             	  3.526e-001 	
        40.193	  1.226e-002 	             	
        40.228	             	  3.527e-001 	
        40.257	  1.231e-002 	             	
        40.292	             	  3.527e-001 	
        40.321	  1.234e-002 	             	
        40.356	             	  3.527e-001 	
        40.385	  1.228e-002 	             	
        40.420	             	  3.527e-001 	
        40.449	  1.231e-002 	             	
        40.513	  1.227e-002 	             	
        40.516	             	  3.526e-001 	
        40.577	  1.221e-002 	             	
        40.580	             	  3.527e-001 	
        40.641	  1.209e-002 	             	
        40.644	             	  3.527e-001 	
        40.705	  1.189e-002 	             	
        40.708	             	  3.527e-001 	
        40.769	  1.185e-002 	             	
        40.772	             	  3.527e-001 	
        40.833	  1.179e-002 	             	
        40.836	             	  3.527e-001 	
        40.897	  1.172e-002 	             	
        40.899	             	  3.526e-001 	
        40.964	             	  3.526e-001 	
        40.993	  1.162e-002 	             	
        41.028	             	  3.526e-001 	
        41.057	  1.155e-002 	             	
        41.092	             	  3.527e-001 	
        41.121	  1.144e-002 	             	
        41.156	             	  3.527e-001 	
        41.185	  1.134e-002 	             	
        41.219	             	  3.527e-001 	
        41.249	  1.126e-002 	             	
        41.313	  1.123e-002 	             	
        41.316	             	  3.526e-001 	
        41.377	  1.107e-002 	             	
        41.380	             	  3.526e-001 	
        41.441	  1.108e-002 	             	
        41.443	             	  3.526e-001 	
        41.505	  1.101e-002 	             	
        41.507	             	  3.525e-001 	
        41.569	  1.101e-002 	             	
        41.572	             	  3.525e-001 	
        41.633	  1.093e-002 	             	
        41.635	             	  3.525e-001 	
        41.697	  1.094e-002 	             	
        41.699	             	  3.525e-001 	
        41.761	  1.091e-002 	             	
        41.763	             	  3.526e-001 	
        41.828	             	  3.527e-001 	
        41.857	  1.097e-002 	             	
        41.892	             	  3.527e-001 	
        41.921	  1.091e-002 	             	
        41.955	             	  3.527e-001 	
        41.985	  1.089e-002 	             	
        42.019	             	  3.527e-001 	
        42.049	  1.090e-002 	             	
        42.113	  1.094e-002 	             	
        42.115	             	  3.527e-001 	
        42.177	  1.095e-002 	             	
        42.179	             	  3.527e-001 	
        42.241	  1.098e-002 	             	
        42.243	             	  3.528e-001 	
        42.305	  1.104e-002 	             	
        42.307	             	  3.528e-001 	
        42.369	  1.111e-002 	             	
        42.372	             	  3.528e-001 	
        42.433	  1.111e-002 	             	
        42.435	             	  3.529e-001 	
        42.497	  1.113e-002 	             	
        42.499	             	  3.529e-001 	
        42.561	  1.113e-002 	             	
        42.563	             	  3.530e-001 	
        42.627	             	  3.530e-001 	
        42.657	  1.114e-002 	             	
        42.691	             	  3.530e-001 	
        42.720	  1.106e-002 	             	
        42.755	             	  3.530e-001 	
        42.785	  1.103e-002 	             	
        42.819	             	  3.530e-001 	
        42.849	  1.098e-002 	             	
        42.913	  1.091e-002 	             	
        42.915	             	  3.529e-001 	
        42.977	  1.088e-002 	             	
        42.979	             	  3.528e-001 	
        43.041	  1.090e-002 	             	
        43.043	             	  3.528e-001 	
        43.105	  1.084e-002 	             	
        43.107	             	  3.528e-001 	
        43.168	  1.076e-002 	             	
        43.171	             	  3.528e-001 	
        43.233	  1.072e-002 	             	
        43.235	             	  3.528e-001 	
        43.296	  1.067e-002 	             	
        43.299	             	  3.529e-001 	
        43.361	  1.071e-002 	             	
        43.363	             	  3.529e-001 	
        43.427	             	  3.529e-001 	
        43.457	  1.072e-002 	             	
        43.491	             	  3.528e-001 	
        43.521	  1.071e-002 	             	
        43.555	             	  3.528e-001 	
        43.585	  1.073e-002 	             	
        43.619	             	  3.528e-001 	
        43.649	  1.074e-002 	             	
        43.712	  1.077e-002 	             	
        43.715	             	  3.528e-001 	
        43.777	  1.081e-002 	             	
        43.779	             	  3.528e-001 	
        43.840	  1.082e-002 	             	
        43.843	             	  3.528e-001 	
        43.905	  1.085e-002 	             	
        43.907	             	  3.527e-001 	
        43.969	  1.093e-002 	             	
        43.971	             	  3.527e-001 	
        44.033	  1.097e-002 	             	
        44.035	             	  3.528e-001 	
        44.097	  1.100e-002 	             	
        44.099	             	  3.528e-001 	
        44.161	  1.100e-002 	             	
        44.163	             	  3.528e-001 	
        44.227	             	  3.529e-001 	
        44.257	  1.110e-002 	             	
        44.291	             	  3.529e-001 	
        44.320	  1.122e-002 	             	
        44.355	             	  3.529e-001 	
        44.384	  1.135e-002 	             	
        44.419	             	  3.528e-001 	
        44.448	  1.143e-002 	             	
        44.513	  1.146e-002 	             	
        44.515	             	  3.528e-001 	
        44.576	  1.144e-002 	             	
        44.579	             	  3.528e-001 	
        44.640	  1.147e-002 	             	
        44.643	             	  3.527e-001 	
        44.704	  1.172e-002 	             	
        44.707	             	  3.527e-001 	
        44.768	  1.184e-002 	             	
        44.771	             	  3.527e-001 	
        44.832	  1.183e-002 	             	
        44.835	             	  3.527e-001 	
        44.896	  1.184e-002 	             	
        44.899	             	  3.526e-001 	
        44.960	  1.186e-002 	             	
        44.963	             	  3.526e-001 	
        45.027	             	  3.527e-001 	
        45.056	  1.184e-002 	             	
        45.091	             	  3.527e-001 	
        45.120	  1.185e-002 	             	
        45.155	             	  3.527e-001 	
        45.184	  1.201e-002 	             	
        45.219	             	  3.527e-001 	
        45.248	  1.220e-002 	             	
        45.312	  1.219e-002 	             	
        45.315	             	  3.527e-001 	
        45.376	  1.207e-002 	             	
        45.379	             	  3.527e-001 	
        45.440	  1.205e-002 	             	
        45.443	             	  3.527e-001 	
        45.504	  1.197e-002 	             	
        45.507	             	  3.528e-001 	
        45.568	  1.197e-002 	             	
        45.571	             	  3.528e-001 	
        45.632	  1.193e-002 	             	
        45.635	             	  3.528e-001 	
        45.696	  1.185e-002 	             	
        45.699	             	  3.528e-001 	
        45.760	  1.185e-002 	             	
        45.763	             	  3.528e-001 	
        45.827	             	  3.528e-001 	
        45.856	  1.184e-002 	             	
        45.891	             	  3.527e-001 	
        45.920	  1.178e-002 	             	
        45.955	             	  3.527e-001 	
        45.984	  1.168e-002 	             	
        46.019	             	  3.527e-001 	
        46.049	  1.165e-002 	             	
        46.112	  1.155e-002 	             	
        46.115	             	  3.528e-001 	
        46.176	  1.155e-002 	             	
        46.179	             	  3.527e-001 	
        46.240	  1.147e-002 	             	
        46.243	             	  3.527e-001 	
        46.304	  1.146e-002 	             	
        46.307	             	  3.527e-001 	
        46.368	  1.145e-002 	             	
        46.371	             	  3.527e-001 	
        46.432	  1.135e-002 	             	
        46.435	             	  3.527e-001 	
        46.496	  1.133e-002 	             	
        46.499	             	  3.528e-001 	
        46.560	  1.124e-002 	             	
        46.563	             	  3.529e-001 	
        46.627	             	  3.529e-001 	
        46.656	  1.113e-002 	             	
        46.691	             	  3.528e-001 	
        46.720	  1.108e-002 	             	
        46.755	             	  3.528e-001 	
        46.784	  1.099e-002 	             	
        46.819	             	  3.528e-001 	
        46.848	  1.105e-002 	             	
        46.912	  1.100e-002 	             	
        46.915	             	  3.528e-001 	
        46.976	  1.101e-002 	             	
        46.979	             	  3.528e-001 	
        47.040	  1.095e-002 	             	
        47.043	             	  3.528e-001 	
        47.104	  1.092e-002 	             	
        47.107	             	  3.529e-001 	
        47.168	  1.091e-002 	             	
        47.171	             	  3.529e-001 	
        47.232	  1.088e-002 	             	
        47.235	             	  3.528e-001 	
        47.296	  1.085e-002 	             	
        47.299	             	  3.528e-001 	
        47.360	  1.080e-002 	             	
        47.363	             	  3.527e-001 	
        47.427	             	  3.526e-001 	
        47.456	  1.085e-002 	             	
        47.491	             	  3.526e-001 	
        47.520	  1.085e-002 	             	
        47.555	             	  3.526e-001 	
        47.584	  1.088e-002 	             	
        47.619	             	  3.527e-001 	
        47.648	  1.088e-002 	             	
        47.712	  1.092e-002 	             	
        47.715	             	  3.527e-001 	
        47.776	  1.098e-002 	             	
        47.779	             	  3.526e-001 	
        47.840	  1.095e-002 	             	
        47.843	             	  3.525e-001 	
        47.904	  1.107e-002 	             	
        47.907	             	  3.525e-001 	
        47.968	  1.100e-002 	             	
        47.971	             	  3.526e-001 	
        48.032	  1.091e-002 	             	
        48.035	             	  3.526e-001 	
        48.096	  1.086e-002 	             	
        48.099	             	  3.527e-001 	
        48.160	  1.092e-002 	             	
        48.163	             	  3.527e-001 	
        48.227	             	  3.527e-001 	
        48.256	  1.092e-002 	             	
        48.291	             	  3.526e-001 	
        48.320	  1.093e-002 	             	
        48.355	             	  3.526e-001 	
        48.384	  1.089e-002 	             	
        48.419	             	  3.525e-001 	
        48.448	  1.089e-002 	             	
        48.512	  1.091e-002 	             	
        48.515	             	  3.525e-001 	
        48.576	  1.078e-002 	             	
        48.579	             	  3.525e-001 	
        48.640	  1.082e-002 	             	
        48.643	             	  3.525e-001 	
        48.704	  1.082e-002 	             	
        48.707	             	  3.524e-001 	
        48.768	  1.077e-002 	             	
        48.771	             	  3.524e-001 	
        48.832	  1.083e-002 	             	
        48.835	             	  3.524e-001 	
        48.896	  1.090e-002 	             	
        48.899	             	  3.523e-001 	
        48.960	  1.091e-002 	             	
        48.963	             	  3.523e-001 	
        49.027	             	  3.523e-001 	
        49.056	  1.091e-002 	             	
        49.091	             	  3.523e-001 	
        49.120	  1.103e-002 	             	
        49.155	             	  3.523e-001 	
        49.184	  1.106e-002 	             	
        49.219	             	  3.523e-001 	
        49.248	  1.116e-002 	             	
        49.312	  1.116e-002 	             	
        49.315	             	  3.523e-001 	
        49.376	  1.126e-002 	             	
        49.379	             	  3.524e-001 	
        49.440	  1.130e-002 	             	
        49.443	             	  3.525e-001 	
        49.504	  1.138e-002 	             	
        49.507	             	  3.525e-001 	
        49.568	  1.141e-002 	             	
        49.571	             	  3.525e-001 	
        49.632	  1.152e-002 	             	
        49.635	             	  3.524e-001 	
        49.696	  1.155e-002 	             	
        49.699	             	  3.525e-001 	
        49.760	  1.154e-002 	             	
        49.763	             	  3.525e-001 	
        49.827	             	  3.526e-001 	
        49.856	  1.150e-002 	             	
        49.891	             	  3.526e-001 	
        49.920	  1.152e-002 	             	
        49.955	             	  3.526e-001 	
        49.984	  1.156e-002 	             	
        50.019	             	  3.525e-001 	
        50.048	  1.162e-002 	             	
        50.112	  1.180e-002 	             	
        50.115	             	  3.524e-001 	
        50.176	  1.183e-002 	             	
        50.179	             	  3.524e-001 	
        50.240	  1.197e-002 	             	
        50.243	             	  3.524e-001 	
        50.304	  1.187e-002 	             	
        50.307	             	  3.524e-001 	
        50.368	  1.192e-002 	             	
        50.371	             	  3.524e-001 	
        50.432	  1.192e-002 	             	
        50.435	             	  3.524e-001 	
        50.496	  1.195e-002 	             	
        50.499	             	  3.523e-001 	
        50.560	  1.193e-002 	             	
        50.563	             	  3.522e-001 	
        50.627	             	  3.522e-001 	
        50.656	  1.189e-002 	             	
        50.691	             	  3.522e-001 	
        50.720	  1.184e-002 	             	
        50.755	             	  3.523e-001 	
        50.784	  1.185e-002 	             	
        50.819	             	  3.523e-001 	
        50.848	  1.180e-002 	             	
        50.912	  1.178e-002 	             	
        50.915	             	  3.523e-001 	
        50.976	  1.173e-002 	             	
        50.979	             	  3.523e-001 	
        51.040	  1.175e-002 	             	
        51.043	             	  3.523e-001 	
        51.104	  1.173e-002 	             	
        51.107	             	  3.523e-001 	
        51.168	  1.175e-002 	             	
        51.171	             	  3.523e-001 	
        51.232	  1.163e-002 	             	
        51.235	             	  3.523e-001 	
        51.296	  1.168e-002 	             	
        51.299	             	  3.523e-001 	
        51.360	  1.158e-002 	             	
        51.363	             	  3.522e-001 	
        51.427	             	  3.523e-001 	
        51.456	  1.161e-002 	             	
        51.491	             	  3.522e-001 	
        51.520	  1.158e-002 	             	
        51.555	             	  3.522e-001 	
        51.584	  1.146e-002 	             	
        51.619	             	  3.522e-001 	
        51.648	  1.148e-002 	             	
        51.683	             	  3.522e-001 	
        51.712	  1.138e-002 	             	
        51.776	  1.138e-002 	             	
        51.779	             	  3.522e-001 	
        51.840	  1.124e-002 	             	
        51.843	             	  3.522e-001 	
        51.904	  1.124e-002 	             	
        51.907	             	  3.523e-001 	
        51.968	  1.117e-002 	             	
        51.971	             	  3.523e-001 	
        52.032	  1.113e-002 	             	
        52.035	             	  3.524e-001 	
        52.096	  1.107e-002 	             	
        52.099	             	  3.525e-001 	
        52.160	  1.108e-002 	             	
        52.163	             	  3.525e-001 	
        52.227	             	  3.524e-001 	
        52.256	  1.105e-002 	             	
        52.291	             	  3.524e-001 	
        52.320	  1.106e-002 	             	
        52.355	             	  3.523e-001 	
        52.384	  1.107e-002 	             	
        52.419	             	  3.523e-001 	
        52.448	  1.104e-002 	             	
        52.483	             	  3.522e-001 	
        52.512	  1.114e-002 	             	
        52.576	  1.109e-002 	             	
        52.579	             	  3.523e-001 	
        52.640	  1.109e-002 	             	
        52.643	             	  3.523e-001 	
        52.704	  1.113e-002 	             	
        52.707	             	  3.524e-001 	
        52.768	  1.112e-002 	             	
        52.771	             	  3.525e-001 	
        52.832	  1.121e-002 	             	
        52.835	             	  3.525e-001 	
        52.896	  1.124e-002 	             	
        52.899	             	  3.525e-001 	
        52.960	  1.126e-002 	             	
        52.963	             	  3.525e-001 	
        53.027	             	  3.525e-001 	
        53.056	  1.125e-002 	             	
        53.091	             	  3.525e-001 	
        53.120	  1.130e-002 	             	
        53.155	             	  3.525e-001 	
        53.184	  1.133e-002 	             	
        53.219	             	  3.525e-001 	
        53.248	  1.134e-002 	             	
        53.283	             	  3.524e-001 	
        53.312	  1.140e-002 	             	
        53.376	  1.141e-002 	             	
        53.379	             	  3.524e-001 	
        53.440	  1.139e-002 	             	
        53.443	             	  3.524e-001 	
        53.504	  1.141e-002 	             	
        53.507	             	  3.524e-001 	
        53.568	  1.140e-002 	             	
        53.571	             	  3.524e-001 	
        53.632	  1.133e-002 	             	
        53.635	             	  3.524e-001 	
        53.696	  1.138e-002 	             	
        53.699	             	  3.524e-001 	
        53.760	  1.139e-002 	             	
        53.763	             	  3.524e-001 	
        53.827	             	  3.524e-001 	
        53.856	  1.137e-002 	             	
        53.891	             	  3.525e-001 	
        53.920	  1.129e-002 	             	
        53.955	             	  3.525e-001 	
        53.984	  1.128e-002 	             	
        54.019	             	  3.525e-001 	
        54.048	  1.116e-002 	             	
        54.083	             	  3.526e-001 	
        54.112	  1.124e-002 	             	
        54.176	  1.118e-002 	             	
        54.179	             	  3.526e-001 	
        54.241	  1.118e-002 	             	
        54.244	             	  3.526e-001 	
        54.305	  1.113e-002 	             	
        54.308	             	  3.525e-001 	
        54.369	  1.113e-002 	             	
        54.372	             	  3.524e-001 	
        54.433	  1.114e-002 	             	
        54.436	             	  3.524e-001 	
        54.497	  1.115e-002 	             	
        54.500	             	  3.523e-001 	
        54.561	  1.124e-002 	             	
        54.564	             	  3.523e-001 	
        54.628	             	  3.522e-001 	
        54.657	  1.121e-002 	             	
        54.692	             	  3.522e-001 	
        54.721	  1.122e-002 	             	
        54.756	             	  3.522e-001 	
        54.785	  1.126e-002 	             	
        54.820	             	  3.522e-001 	
        54.849	  1.124e-002 	             	
        54.884	             	  3.523e-001 	
        54.913	  1.127e-002 	             	
        54.977	  1.124e-002 	             	
        54.980	             	  3.523e-001 	
        55.041	  1.136e-002 	             	
        55.044	             	  3.523e-001 	
        55.105	  1.143e-002 	             	
        55.108	             	  3.523e-001 	
        55.169	  1.161e-002 	             	
        55.172	             	  3.523e-001 	
        55.233	  1.165e-002 	             	
        55.236	             	  3.523e-001 	
        55.297	  1.167e-002 	             	
        55.300	             	  3.523e-001 	
        55.361	  1.169e-002 	             	
        55.364	             	  3.523e-001 	
        55.425	  1.171e-002 	             	
        55.428	             	  3.524e-001 	
        55.492	             	  3.523e-001 	
        55.521	  1.174e-002 	             	
        55.556	             	  3.523e-001 	
        55.585	  1.171e-002 	             	
        55.620	             	  3.523e-001 	
        55.649	  1.172e-002 	             	
        55.684	             	  3.524e-001 	
        55.713	  1.181e-002 	             	
        55.777	  1.179e-002 	             	
        55.780	             	  3.524e-001 	
        55.841	  1.173e-002 	             	
        55.844	             	  3.525e-001 	
        55.905	  1.177e-002 	             	
        55.908	             	  3.525e-001 	
        55.969	  1.179e-002 	             	
        55.972	             	  3.525e-001 	
        56.033	  1.177e-002 	             	
        56.036	             	  3.524e-001 	
        56.097	  1.186e-002 	             	
        56.100	             	  3.524e-001 	
        56.161	  1.189e-002 	             	
        56.164	             	  3.525e-001 	
        56.225	  1.187e-002 	             	
        56.228	             	  3.526e-001 	
        56.292	             	  3.525e-001 	
        56.321	  1.185e-002 	             	
        56.356	             	  3.525e-001 	
        56.385	  1.181e-002 	             	
        56.420	             	  3.525e-001 	
        56.449	  1.167e-002 	             	
        56.484	             	  3.525e-001 	
        56.513	  1.164e-002 	             	
        56.577	  1.158e-002 	             	
        56.580	             	  3.525e-001 	
        56.641	  1.148e-002 	             	
        56.644	             	  3.525e-001 	
        56.705	  1.142e-002 	             	
        56.708	             	  3.525e-001 	
        56.769	  1.141e-002 	             	
        56.772	             	  3.525e-001 	
        56.833	  1.137e-002 	             	
        56.836	             	  3.525e-001 	
        56.897	  1.129e-002 	             	
        56.900	             	  3.524e-001 	
        56.961	  1.125e-002 	             	
        56.964	             	  3.525e-001 	
        57.025	  1.116e-002 	             	
        57.028	             	  3.524e-001 	
        57.092	             	  3.524e-001 	
        57.121	  1.120e-002 	             	
        57.156	             	  3.525e-001 	
        57.185	  1.114e-002 	             	
        57.220	             	  3.525e-001 	
        57.249	  1.104e-002 	             	
        57.284	             	  3.525e-001 	
        57.313	  1.109e-002 	             	
        57.377	  1.114e-002 	             	
        57.380	             	  3.525e-001 	
        57.441	  1.112e-002 	             	
        57.444	             	  3.526e-001 	
        57.505	  1.115e-002 	             	
        57.508	             	  3.526e-001 	
        57.569	  1.120e-002 	             	
        57.572	             	  3.525e-001 	
        57.633	  1.117e-002 	             	
        57.636	             	  3.525e-001 	
        57.697	  1.119e-002 	             	
        57.700	             	  3.525e-001 	
        57.761	  1.121e-002 	             	
        57.764	             	  3.525e-001 	
        57.825	  1.117e-002 	             	
        57.828	             	  3.525e-001 	
        57.892	             	  3.525e-001 	
        57.921	  1.118e-002 	             	
        57.956	             	  3.525e-001 	
        57.985	  1.131e-002 	             	
        58.020	             	  3.526e-001 	
        58.049	  1.136e-002 	             	
        58.084	             	  3.527e-001 	
        58.113	  1.139e-002 	             	
        58.177	  1.143e-002 	             	
        58.180	             	  3.527e-001 	
        58.241	  1.153e-002 	             	
        58.244	             	  3.527e-001 	
        58.305	  1.162e-002 	             	
        58.308	             	  3.527e-001 	
        58.369	  1.171e-002 	             	
        58.371	             	  3.526e-001 	
        58.433	  1.176e-002 	             	
        58.436	             	  3.525e-001 	
        58.497	  1.180e-002 	             	
        58.499	             	  3.524e-001 	
        58.561	  1.180e-002 	             	
        58.563	             	  3.523e-001 	
        58.625	  1.185e-002 	             	
        58.628	             	  3.523e-001 	
        58.691	             	  3.523e-001 	
        58.721	  1.188e-002 	             	
        58.756	             	  3.523e-001 	
        58.785	  1.190e-002 	             	
        58.820	             	  3.523e-001 	
        58.849	  1.192e-002 	             	
        58.883	             	  3.523e-001 	
        58.913	  1.191e-002 	             	
        58.977	  1.186e-002 	             	
        58.980	             	  3.523e-001 	
        59.041	  1.183e-002 	             	
        59.043	             	  3.523e-001 	
        59.105	  1.179e-002 	             	
        59.108	             	  3.524e-001 	
        59.169	  1.164e-002 	             	
        59.171	             	  3.524e-001 	
        59.233	  1.162e-002 	             	
        59.235	             	  3.525e-001 	
        59.297	  1.157e-002 	             	
        59.300	             	  3.525e-001 	
        59.361	  1.162e-002 	             	
        59.363	             	  3.525e-001 	
        59.425	  1.150e-002 	             	
        59.427	             	  3.525e-001 	
        59.492	             	  3.525e-001 	
        59.521	  1.143e-002 	             	
        59.556	             	  3.525e-001 	
        59.585	  1.135e-002 	             	
        59.619	             	  3.525e-001 	
        59.649	  1.118e-002 	             	
        59.683	             	  3.525e-001 	
        59.713	  1.122e-002 	             	
        59.777	  1.119e-002 	             	
        59.780	             	  3.526e-001 	
        59.841	  1.114e-002 	             	
        59.843	             	  3.526e-001 	
        59.905	  1.108e-002 	             	
        59.907	             	  3.526e-001 	
        59.969	  1.106e-002 	             	
        59.971	             	  3.526e-001 	
        60.033	  1.102e-002 	             	
        60.035	             	  3.526e-001 	
        60.097	  1.101e-002 	             	
        60.099	             	  3.526e-001 	
        60.161	  1.118e-002 	             	
        60.163	             	  3.526e-001 	
        60.225	  1.123e-002 	             	
        60.227	             	  3.527e-001 	
        60.291	             	  3.527e-001 	
        60.321	  1.122e-002 	             	
        60.355	             	  3.527e-001 	
        60.385	  1.125e-002 	             	
        60.419	             	  3.527e-001 	
        60.449	  1.134e-002 	             	
        60.483	             	  3.527e-001 	
        60.512	  1.149e-002 	             	
        60.577	  1.167e-002 	             	
        60.579	             	  3.527e-001 	
        60.641	  1.177e-002 	             	
        60.643	             	  3.527e-001 	
        60.705	  1.176e-002 	             	
        60.707	             	  3.527e-001 	
        60.768	  1.176e-002 	             	
        60.771	             	  3.527e-001 	
        60.833	  1.184e-002 	             	
        60.835	             	  3.527e-001 	
        60.897	  1.190e-002 	             	
        60.899	             	  3.527e-001 	
        60.961	  1.192e-002 	             	
        60.963	             	  3.527e-001 	
        61.025	  1.203e-002 	             	
        61.027	             	  3.527e-001 	
        61.091	             	  3.527e-001 	
        61.120	  1.219e-002 	             	
        61.155	             	  3.527e-001 	
        61.185	  1.231e-002 	             	
        61.219	             	  3.527e-001 	
        61.249	  1.240e-002 	             	
        61.283	             	  3.527e-001 	
        61.312	  1.241e-002 	             	
        61.377	  1.245e-002 	             	
        61.379	             	  3.527e-001 	
        61.441	  1.232e-002 	             	
        61.443	             	  3.526e-001 	
        61.505	  1.228e-002 	             	
        61.507	             	  3.526e-001 	
        61.569	  1.207e-002 	             	
        61.571	             	  3.526e-001 	
        61.633	  1.191e-002 	             	
        61.635	             	  3.526e-001 	
        61.697	  1.191e-002 	             	
        61.699	             	  3.527e-001 	
        61.761	  1.194e-002 	             	
        61.763	             	  3.527e-001 	
        61.824	  1.194e-002 	             	
        61.827	             	  3.527e-001 	
        61.891	             	  3.527e-001 	
        61.920	  1.196e-002 	             	
        61.955	             	  3.528e-001 	
        61.984	  1.202e-002 	             	
        62.019	             	  3.528e-001 	
        62.048	  1.200e-002 	             	
        62.083	             	  3.528e-001 	
        62.112	  1.198e-002 	             	
        62.176	  1.201e-002 	             	
        62.179	             	  3.528e-001 	
        62.240	  1.202e-002 	             	
        62.243	             	  3.529e-001 	
        62.305	  1.205e-002 	             	
        62.307	             	  3.528e-001 	
        62.368	  1.199e-002 	             	
        62.371	             	  3.528e-001 	
        62.432	  1.194e-002 	             	
        62.435	             	  3.528e-001 	
        62.496	  1.185e-002 	             	
        62.499	             	  3.528e-001 	
        62.560	  1.176e-002 	             	
        62.563	             	  3.527e-001 	
        62.624	  1.161e-002 	             	
        62.627	             	  3.527e-001 	
        62.691	             	  3.526e-001 	
        62.720	  1.156e-002 	             	
        62.755	             	  3.526e-001 	
        62.784	  1.147e-002 	             	
        62.819	             	  3.526e-001 	
        62.848	  1.139e-002 	             	
        62.883	             	  3.526e-001 	
        62.912	  1.122e-002 	             	
        62.976	  1.111e-002 	             	
        62.979	             	  3.526e-001 	
        63.040	  1.106e-002 	             	
        63.043	             	  3.525e-001 	
        63.104	  1.102e-002 	             	
        63.107	             	  3.525e-001 	
        63.168	  1.099e-002 	             	
        63.171	             	  3.526e-001 	
        63.232	  1.101e-002 	             	
        63.235	             	  3.526e-001 	
        63.296	  1.101e-002 	             	
        63.299	             	  3.526e-001 	
        63.360	  1.112e-002 	             	
        63.363	             	  3.527e-001 	
        63.424	  1.115e-002 	             	
        63.427	             	  3.527e-001 	
        63.491	             	  3.527e-001 	
        63.520	  1.111e-002 	             	
        63.555	             	  3.527e-001 	
        63.584	  1.119e-002 	             	
        63.619	             	  3.527e-001 	
        63.648	  1.123e-002 	             	
        63.683	             	  3.527e-001 	
        63.712	  1.128e-002 	             	
        63.776	  1.140e-002 	             	
        63.779	             	  3.526e-001 	
        63.840	  1.147e-002 	             	
        63.843	             	  3.526e-001 	
        63.904	  1.145e-002 	             	
        63.907	             	  3.526e-001 	
        63.968	  1.153e-002 	             	
        63.971	             	  3.527e-001 	
        64.032	  1.159e-002 	             	
        64.035	             	  3.527e-001 	
        64.096	  1.169e-002 	             	
        64.099	             	  3.527e-001 	
        64.160	  1.189e-002 	             	
        64.163	             	  3.528e-001 	
        64.224	  1.204e-002 	             	
        64.227	             	  3.528e-001 	
        64.291	             	  3.528e-001 	
        64.320	  1.214e-002 	             	
        64.355	             	  3.528e-001 	
        64.384	  1.215e-002 	             	
        64.419	             	  3.528e-001 	
        64.448	  1.231e-002 	             	
        64.483	             	  3.528e-001 	
        64.512	  1.236e-002 	             	
        64.547	             	  3.527e-001 	
        64.576	  1.237e-002 	             	
        64.640	  1.253e-002 	             	
        64.643	             	  3.527e-001 	
        64.704	  1.255e-002 	             	
        64.707	             	  3.527e-001 	
        64.768	  1.265e-002 	             	
        64.771	             	  3.527e-001 	
        64.832	  1.270e-002 	             	
        64.835	             	  3.526e-001 	
        64.896	  1.273e-002 	             	
        64.899	             	  3.526e-001 	
        64.960	  1.276e-002 	             	
        64.963	             	  3.526e-001 	
        65.024	  1.241e-002 	             	
        65.027	             	  3.525e-001 	
        65.091	             	  3.525e-001 	
        65.120	  1.230e-002 	             	
        65.155	             	  3.525e-001 	
        65.184	  1.224e-002 	             	
        65.219	             	  3.526e-001 	
        65.248	  1.217e-002 	             	
        65.283	             	  3.526e-001 	
        65.312	  1.217e-002 	             	
        65.347	             	  3.526e-001 	
        65.376	  1.196e-002 	             	
        65.440	  1.193e-002 	             	
        65.443	             	  3.526e-001 	
        65.504	  1.169e-002 	             	
        65.507	             	  3.525e-001 	
        65.568	  1.159e-002 	             	
        65.571	             	  3.525e-001 	
        65.632	  1.156e-002 	             	
        65.635	             	  3.526e-001 	
        65.696	  1.151e-002 	             	
        65.699	             	  3.526e-001 	
        65.760	  1.145e-002 	             	
        65.763	             	  3.526e-001 	
        65.824	  1.138e-002 	             	
        65.827	             	  3.526e-001 	
        65.891	             	  3.526e-001 	
        65.920	  1.122e-002 	             	
        65.955	             	  3.526e-001 	
        65.984	  1.111e-002 	             	
        66.019	             	  3.525e-001 	
        66.048	  1.114e-002 	             	
        66.083	             	  3.525e-001 	
        66.112	  1.114e-002 	             	
        66.147	             	  3.525e-001 	
        66.176	  1.115e-002 	             	
        66.240	  1.115e-002 	             	
        66.243	             	  3.525e-001 	
        66.304	  1.118e-002 	             	
        66.307	             	  3.525e-001 	
        66.368	  1.120e-002 	             	
        66.371	             	  3.525e-001 	
        66.432	  1.125e-002 	             	
        66.435	             	  3.525e-001 	
        66.496	  1.138e-002 	             	
        66.499	             	  3.526e-001 	
        66.560	  1.155e-002 	             	
        66.563	             	  3.526e-001 	
        66.624	  1.165e-002 	             	
        66.627	             	  3.526e-001 	
        66.691	             	  3.526e-001 	
        66.720	  1.167e-002 	             	
        66.755	             	  3.526e-001 	
        66.784	  1.181e-002 	             	
        66.819	             	  3.526e-001 	
        66.848	  1.191e-002 	             	
        66.883	             	  3.525e-001 	
        66.912	  1.194e-002 	             	
        66.947	             	  3.524e-001 	
        66.976	  1.202e-002 	             	
        67.040	  1.208e-002 	             	
        67.043	             	  3.524e-001 	
        67.104	  1.228e-002 	             	
        67.107	             	  3.524e-001 	
        67.168	  1.362e-002 	             	
        67.171	             	  3.524e-001 	
        67.232	  1.477e-002 	             	
        67.235	             	  3.524e-001 	
        67.296	  1.483e-002 	             	
        67.299	             	  3.524e-001 	
        67.360	  1.490e-002 	             	
        67.363	             	  3.523e-001 	
        67.424	  1.484e-002 	             	
        67.427	             	  3.523e-001 	
        67.491	             	  3.523e-001 	
        67.520	  1.472e-002 	             	
        67.555	             	  3.523e-001 	
        67.584	  1.454e-002 	             	
        67.619	             	  3.523e-001 	
        67.648	  1.437e-002 	             	
        67.683	             	  3.523e-001 	
        67.712	  1.422e-002 	             	
        67.747	             	  3.523e-001 	
        67.776	  1.402e-002 	             	
        67.840	  1.387e-002 	             	
        67.843	             	  3.523e-001 	
        67.904	  1.368e-002 	             	
        67.907	             	  3.524e-001 	
        67.968	  1.357e-002 	             	
        67.971	             	  3.524e-001 	
        68.032	  1.347e-002 	             	
        68.035	             	  3.524e-001 	
        68.096	  1.337e-002 	             	
        68.099	             	  3.525e-001 	
        68.160	  1.327e-002 	             	
        68.163	             	  3.525e-001 	
        68.224	  1.313e-002 	             	
        68.227	             	  3.525e-001 	
        68.288	  1.298e-002 	             	
        68.291	             	  3.525e-001 	
        68.355	             	  3.525e-001 	
        68.384	  1.296e-002 	             	
        68.419	             	  3.526e-001 	
        68.448	  1.291e-002 	             	
        68.483	             	  3.526e-001 	
        68.512	  1.277e-002 	             	
        68.547	             	  3.526e-001 	
        68.576	  1.266e-002 	             	
        68.640	  1.256e-002 	             	
        68.643	             	  3.526e-001 	
        68.704	  1.249e-002 	             	
        68.707	             	  3.526e-001 	
        68.768	  1.248e-002 	             	
        68.771	             	  3.525e-001 	
        68.832	  1.248e-002 	             	
        68.835	             	  3.525e-001 	
        68.896	  1.241e-002 	             	
        68.899	             	  3.525e-001 	
        68.960	  1.263e-002 	             	
        68.963	             	  3.525e-001 	
        69.024	  1.375e-002 	             	
        69.027	             	  3.525e-001 	
        69.088	  1.391e-002 	             	
        69.091	             	  3.525e-001 	
        69.155	             	  3.525e-001 	
        69.184	  1.389e-002 	             	
        69.219	             	  3.525e-001 	
        69.248	  1.388e-002 	             	
        69.283	             	  3.525e-001 	
        69.312	  1.393e-002 	             	
        69.347	             	  3.525e-001 	
        69.376	  1.403e-002 	             	
        69.440	  1.407e-002 	             	
        69.443	             	  3.525e-001 	
        69.504	  1.412e-002 	             	
        69.507	             	  3.525e-001 	
        69.568	  1.421e-002 	             	
        69.571	             	  3.524e-001 	
        69.632	  1.431e-002 	             	
        69.635	             	  3.524e-001 	
        69.696	  1.431e-002 	             	
        69.699	             	  3.525e-001 	
        69.760	  1.439e-002 	             	
        69.763	             	  3.525e-001 	
        69.824	  1.445e-002 	             	
        69.827	             	  3.525e-001 	
        69.888	  1.452e-002 	             	
        69.891	             	  3.525e-001 	
        69.955	             	  3.526e-001 	
        69.984	  1.453e-002 	             	
        70.019	             	  3.526e-001 	
        70.048	  1.452e-002 	             	
        70.083	             	  3.526e-001 	
        70.112	  1.452e-002 	             	
        70.147	             	  3.526e-001 	
        70.176	  1.454e-002 	             	
        70.240	  1.455e-002 	             	
        70.243	             	  3.525e-001 	
        70.304	  1.445e-002 	             	
        70.307	             	  3.525e-001 	
        70.368	  1.449e-002 	             	
        70.371	             	  3.525e-001 	
        70.432	  1.450e-002 	             	
        70.435	             	  3.525e-001 	
        70.496	  1.443e-002 	             	
        70.499	             	  3.525e-001 	
        70.560	  1.435e-002 	             	
        70.563	             	  3.525e-001 	
        70.624	  1.423e-002 	             	
        70.627	             	  3.525e-001 	
        70.688	  1.414e-002 	             	
        70.691	             	  3.524e-001 	
        70.755	             	  3.524e-001 	
        70.784	  1.417e-002 	             	
        70.819	             	  3.524e-001 	
        70.848	  1.406e-002 	             	
        70.883	             	  3.525e-001 	
        70.912	  1.399e-002 	             	
        70.947	             	  3.524e-001 	
        70.976	  1.394e-002 	             	
        71.040	  1.388e-002 	             	
        71.043	             	  3.524e-001 	
        71.104	  1.370e-002 	             	
        71.107	             	  3.524e-001 	
        71.168	  1.370e-002 	             	
        71.171	             	  3.523e-001 	
        71.232	  1.364e-002 	             	
        71.235	             	  3.523e-001 	
        71.296	  1.368e-002 	             	
        71.299	             	  3.523e-001 	
        71.360	  1.371e-002 	             	
        71.363	             	  3.522e-001 	
        71.424	  1.380e-002 	             	
        71.427	             	  3.522e-001 	
        71.488	  1.399e-002 	             	
        71.491	             	  3.522e-001 	
        71.555	             	  3.522e-001 	
        71.584	  1.403e-002 	             	
        71.619	             	  3.522e-001 	
        71.648	  1.407e-002 	             	
        71.684	             	  3.522e-001 	
        71.713	  1.406e-002 	             	
        71.748	             	  3.523e-001 	
        71.777	  1.411e-002 	             	
        71.841	  1.412e-002 	             	
        71.844	             	  3.523e-001 	
        71.905	  1.412e-002 	             	
        71.908	             	  3.525e-001 	
        71.969	  1.422e-002 	             	
        71.972	             	  3.525e-001 	
        72.033	  1.425e-002 	             	
        72.036	             	  3.526e-001 	
        72.097	  1.426e-002 	             	
        72.100	             	  3.526e-001 	
        72.161	  1.435e-002 	             	
        72.164	             	  3.525e-001 	
        72.225	  1.467e-002 	             	
        72.228	             	  3.525e-001 	
        72.289	  1.556e-002 	             	
        72.292	             	  3.525e-001 	
        72.356	             	  3.524e-001 	
        72.385	  1.571e-002 	             	
        72.420	             	  3.525e-001 	
        72.449	  1.567e-002 	             	
        72.484	             	  3.525e-001 	
        72.513	  1.556e-002 	             	
        72.548	             	  3.524e-001 	
        72.577	  1.541e-002 	             	
        72.641	  1.530e-002 	             	
        72.644	             	  3.525e-001 	
        72.705	  1.513e-002 	             	
        72.708	             	  3.525e-001 	
        72.769	  1.496e-002 	             	
        72.772	             	  3.525e-001 	
        72.833	  1.489e-002 	             	
        72.836	             	  3.524e-001 	
        72.897	  1.476e-002 	             	
        72.900	             	  3.524e-001 	
        72.961	  1.463e-002 	             	
        72.964	             	  3.524e-001 	
        73.025	  1.463e-002 	             	
        73.028	             	  3.524e-001 	
        73.089	  1.449e-002 	             	
        73.092	             	  3.524e-001 	
        73.156	             	  3.524e-001 	
        73.185	  1.440e-002 	             	
        73.220	             	  3.524e-001 	
        73.249	  1.435e-002 	             	
        73.284	             	  3.525e-001 	
        73.313	  1.432e-002 	             	
        73.348	             	  3.524e-001 	
        73.377	  1.425e-002 	             	
        73.441	  1.422e-002 	             	
        73.444	             	  3.524e-001 	
        73.505	  1.418e-002 	             	
        73.508	             	  3.524e-001 	
        73.569	  1.404e-002 	             	
        73.572	             	  3.524e-001 	
        73.633	  1.396e-002 	             	
        73.636	             	  3.524e-001 	
        73.697	  1.386e-002 	             	
        73.700	             	  3.523e-001 	
        73.761	  1.388e-002 	             	
        73.764	             	  3.523e-001 	
        73.825	  1.385e-002 	             	
        73.828	             	  3.523e-001 	
        73.889	  1.389e-002 	             	
        73.892	             	  3.523e-001 	
        73.956	             	  3.523e-001 	
        73.985	  1.387e-002 	             	
        74.020	             	  3.523e-001 	
        74.049	  1.397e-002 	             	
        74.084	             	  3.522e-001 	
        74.113	  1.403e-002 	             	
        74.148	             	  3.522e-001 	
        74.177	  1.408e-002 	             	
        74.241	  1.418e-002 	             	
        74.244	             	  3.522e-001 	
        74.305	  1.421e-002 	             	
        74.308	             	  3.523e-001 	
        74.369	  1.433e-002 	             	
        74.372	             	  3.523e-001 	
        74.433	  1.483e-002 	             	
        74.436	             	  3.524e-001 	
        74.497	  1.497e-002 	             	
        74.500	             	  3.524e-001 	
        74.561	  1.515e-002 	             	
        74.564	             	  3.524e-001 	
        74.625	  1.514e-002 	             	
        74.628	             	  3.523e-001 	
        74.689	  1.533e-002 	             	
        74.692	             	  3.523e-001 	
        74.756	             	  3.523e-001 	
        74.785	  1.532e-002 	             	
        74.820	             	  3.524e-001 	
        74.849	  1.546e-002 	             	
        74.884	             	  3.524e-001 	
        74.913	  1.536e-002 	             	
        74.948	             	  3.525e-001 	
        74.977	  1.539e-002 	             	
        75.041	  1.555e-002 	             	
        75.044	             	  3.525e-001 	
        75.105	  1.557e-002 	             	
        75.108	             	  3.525e-001 	
        75.169	  1.560e-002 	             	
        75.172	             	  3.524e-001 	
        75.233	  1.567e-002 	             	
        75.236	             	  3.524e-001 	
        75.297	  1.583e-002 	             	
        75.300	             	  3.523e-001 	
        75.361	  1.565e-002 	             	
        75.364	             	  3.522e-001 	
        75.425	  1.544e-002 	             	
        75.428	             	  3.521e-001 	
        75.489	  1.545e-002 	             	
        75.492	             	  3.521e-001 	
        75.556	             	  3.520e-001 	
        75.585	  1.545e-002 	             	
        75.620	             	  3.519e-001 	
        75.649	  1.532e-002 	             	
        75.684	             	  3.519e-001 	
        75.713	  1.537e-002 	             	
        75.748	             	  3.519e-001 	
        75.777	  1.529e-002 	             	
        75.841	  1.525e-002 	             	
        75.843	             	  3.520e-001 	
        75.905	  1.517e-002 	             	
        75.908	             	  3.520e-001 	
        75.969	  1.506e-002 	             	
        75.972	             	  3.521e-001 	
        76.033	  1.493e-002 	             	
        76.035	             	  3.521e-001 	
        76.097	  1.477e-002 	             	
        76.100	             	  3.521e-001 	
        76.161	  1.468e-002 	             	
        76.168	             	  3.522e-001 	
        76.225	  1.421e-002 	             	
        76.228	             	  3.523e-001 	
        76.289	  1.417e-002 	             	
        76.292	             	  3.524e-001 	
        76.356	             	  3.524e-001 	
        76.385	  1.399e-002 	             	
        76.420	             	  3.523e-001 	
        76.449	  1.429e-002 	             	
        76.483	             	  3.523e-001 	
        76.513	  1.424e-002 	             	
        76.547	             	  3.523e-001 	
        76.577	  1.429e-002 	             	
        76.641	  1.421e-002 	             	
        76.644	             	  3.522e-001 	
        76.705	  1.424e-002 	             	
        76.707	             	  3.522e-001 	
        76.769	  1.432e-002 	             	
        76.771	             	  3.522e-001 	
        76.833	  1.441e-002 	             	
        76.836	             	  3.522e-001 	
        76.897	  1.462e-002 	             	
        76.899	             	  3.522e-001 	
        76.961	  1.465e-002 	             	
        76.963	             	  3.522e-001 	
        77.025	  1.463e-002 	             	
        77.027	             	  3.521e-001 	
        77.089	  1.461e-002 	             	
        77.092	             	  3.521e-001 	
        77.155	             	  3.521e-001 	
        77.185	  1.468e-002 	             	
        77.219	             	  3.521e-001 	
        77.249	  1.485e-002 	             	
        77.284	             	  3.522e-001 	
        77.313	  1.495e-002 	             	
        77.347	             	  3.522e-001 	
        77.377	  1.500e-002 	             	
        77.441	  1.496e-002 	             	
        77.443	             	  3.522e-001 	
        77.505	  1.502e-002 	             	
        77.507	             	  3.522e-001 	
        77.569	  1.511e-002 	             	
        77.572	             	  3.522e-001 	
        77.633	  1.513e-002 	             	
        77.635	             	  3.522e-001 	
        77.697	  1.526e-002 	             	
        77.699	             	  3.522e-001 	
        77.761	  1.536e-002 	             	
        77.763	             	  3.522e-001 	
        77.825	  1.564e-002 	             	
        77.827	             	  3.522e-001 	
        77.889	  1.568e-002 	             	
        77.891	             	  3.522e-001 	
        77.955	             	  3.522e-001 	
        77.985	  1.558e-002 	             	
        78.019	             	  3.522e-001 	
        78.049	  1.556e-002 	             	
        78.083	             	  3.521e-001 	
        78.113	  1.546e-002 	             	
        78.148	             	  3.521e-001 	
        78.177	  1.546e-002 	             	
        78.211	             	  3.520e-001 	
        78.241	  1.535e-002 	             	
        78.304	  1.532e-002 	             	
        78.308	             	  3.520e-001 	
        78.369	  1.524e-002 	             	
        78.371	             	  3.520e-001 	
        78.433	  1.524e-002 	             	
        78.435	             	  3.520e-001 	
        78.497	  1.517e-002 	             	
        78.499	             	  3.520e-001 	
        78.561	  1.512e-002 	             	
        78.563	             	  3.520e-001 	
        78.625	  1.507e-002 	             	
        78.627	             	  3.521e-001 	
        78.689	  1.497e-002 	             	
        78.691	             	  3.521e-001 	
        78.755	             	  3.521e-001 	
        78.784	  1.482e-002 	             	
        78.819	             	  3.521e-001 	
        78.849	  1.472e-002 	             	
        78.883	             	  3.521e-001 	
        78.913	  1.458e-002 	             	
        78.947	             	  3.522e-001 	
        78.977	  1.456e-002 	             	
        79.011	             	  3.522e-001 	
        79.040	  1.457e-002 	             	
        79.104	  1.464e-002 	             	
        79.107	             	  3.521e-001 	
        79.168	  1.476e-002 	             	
        79.171	             	  3.521e-001 	
        79.232	  1.472e-002 	             	
        79.235	             	  3.520e-001 	
        79.296	  1.489e-002 	             	
        79.299	             	  3.521e-001 	
        79.361	  1.498e-002 	             	
        79.363	             	  3.521e-001 	
        79.424	  1.515e-002 	             	
        79.427	             	  3.522e-001 	
        79.488	  1.528e-002 	             	
        79.491	             	  3.522e-001 	
        79.555	             	  3.522e-001 	
        79.584	  1.535e-002 	             	
        79.619	             	  3.523e-001 	
        79.648	  1.545e-002 	             	
        79.683	             	  3.523e-001 	
        79.712	  1.555e-002 	             	
        79.747	             	  3.522e-001 	
        79.776	  1.560e-002 	             	
        79.811	             	  3.522e-001 	
        79.840	  1.564e-002 	             	
        79.904	  1.565e-002 	             	
        79.907	             	  3.522e-001 	
        79.968	  1.563e-002 	             	
        79.971	             	  3.521e-001 	
        80.032	  1.568e-002 	             	
        80.035	             	  3.521e-001 	
        80.096	  1.582e-002 	             	
        80.099	             	  3.520e-001 	
        80.160	  1.593e-002 	             	
        80.163	             	  3.520e-001 	
        80.224	  1.600e-002 	             	
        80.227	             	  3.520e-001 	
        80.288	  1.592e-002 	             	
        80.291	             	  3.520e-001 	
        80.355	             	  3.520e-001 	
        80.384	  1.592e-002 	             	
        80.419	             	  3.521e-001 	
        80.448	  1.595e-002 	             	
        80.483	             	  3.521e-001 	
        80.512	  1.596e-002 	             	
        80.547	             	  3.521e-001 	
        80.576	  1.601e-002 	             	
        80.611	             	  3.521e-001 	
        80.640	  1.607e-002 	             	
        80.704	  1.599e-002 	             	
        80.707	             	  3.520e-001 	
        80.768	  1.601e-002 	             	
        80.771	             	  3.520e-001 	
        80.832	  1.591e-002 	             	
        80.835	             	  3.519e-001 	
        80.896	  1.591e-002 	             	
        80.899	             	  3.519e-001 	
        80.960	  1.579e-002 	             	
        80.963	             	  3.519e-001 	
        81.024	  1.571e-002 	             	
        81.027	             	  3.520e-001 	
        81.088	  1.571e-002 	             	
        81.091	             	  3.520e-001 	
        81.152	  1.570e-002 	             	
        81.155	             	  3.520e-001 	
        81.219	             	  3.520e-001 	
        81.248	  1.562e-002 	             	
        81.283	             	  3.520e-001 	
        81.312	  1.553e-002 	             	
        81.347	             	  3.519e-001 	
        81.376	  1.544e-002 	             	
        81.411	             	  3.520e-001 	
        81.440	  1.542e-002 	             	
        81.504	  1.533e-002 	             	
        81.507	             	  3.520e-001 	
        81.568	  1.522e-002 	             	
        81.571	             	  3.520e-001 	
        81.632	  1.509e-002 	             	
        81.635	             	  3.520e-001 	
        81.696	  1.500e-002 	             	
        81.699	             	  3.521e-001 	
        81.760	  1.477e-002 	             	
        81.763	             	  3.522e-001 	
        81.824	  1.472e-002 	             	
        81.827	             	  3.521e-001 	
        81.888	  1.501e-002 	             	
        81.891	             	  3.521e-001 	
        81.952	  1.488e-002 	             	
        81.955	             	  3.521e-001 	
        82.019	             	  3.520e-001 	
        82.048	  1.499e-002 	             	
        82.083	             	  3.520e-001 	
        82.112	  1.502e-002 	             	
        82.147	             	  3.520e-001 	
        82.176	  1.505e-002 	             	
        82.211	             	  3.520e-001 	
        82.240	  1.506e-002 	             	
        82.304	  1.503e-002 	             	
        82.307	             	  3.520e-001 	
        82.368	  1.497e-002 	             	
        82.371	             	  3.519e-001 	
        82.432	  1.511e-002 	             	
        82.435	             	  3.519e-001 	
        82.496	  1.527e-002 	             	
        82.499	             	  3.519e-001 	
        82.560	  1.598e-002 	             	
        82.563	             	  3.519e-001 	
        82.624	  1.624e-002 	             	
        82.627	             	  3.520e-001 	
        82.688	  1.624e-002 	             	
        82.691	             	  3.519e-001 	
        82.752	  1.624e-002 	             	
        82.755	             	  3.519e-001 	
        82.819	             	  3.520e-001 	
        82.848	  1.624e-002 	             	
        82.883	             	  3.521e-001 	
        82.912	  1.623e-002 	             	
        82.947	             	  3.521e-001 	
        82.976	  1.619e-002 	             	
        83.011	             	  3.522e-001 	
        83.040	  1.619e-002 	             	
        83.104	  1.617e-002 	             	
        83.107	             	  3.522e-001 	
        83.168	  1.614e-002 	             	
        83.171	             	  3.522e-001 	
        83.232	  1.608e-002 	             	
        83.235	             	  3.522e-001 	
        83.296	  1.599e-002 	             	
        83.299	             	  3.521e-001 	
        83.360	  1.592e-002 	             	
        83.363	             	  3.521e-001 	
        83.424	  1.591e-002 	             	
        83.427	             	  3.520e-001 	
        83.489	  1.577e-002 	             	
        83.491	             	  3.519e-001 	
        83.552	  1.570e-002 	             	
        83.555	             	  3.520e-001 	
        83.619	             	  3.520e-001 	
        83.648	  1.566e-002 	             	
        83.683	             	  3.520e-001 	
        83.712	  1.565e-002 	             	
        83.747	             	  3.520e-001 	
        83.776	  1.564e-002 	             	
        83.811	             	  3.520e-001 	
        83.840	  1.559e-002 	             	
        83.904	  1.544e-002 	             	
        83.907	             	  3.521e-001 	
        83.968	  1.528e-002 	             	
        83.971	             	  3.521e-001 	
        84.032	  1.522e-002 	             	
        84.035	             	  3.521e-001 	
        84.096	  1.506e-002 	             	
        84.099	             	  3.521e-001 	
        84.160	  1.505e-002 	             	
        84.163	             	  3.521e-001 	
        84.224	  1.498e-002 	             	
        84.227	             	  3.521e-001 	
        84.288	  1.499e-002 	             	
        84.291	             	  3.522e-001 	
        84.352	  1.497e-002 	             	
        84.355	             	  3.522e-001 	
        84.419	             	  3.522e-001 	
        84.448	  1.499e-002 	             	
        84.483	             	  3.522e-001 	
        84.512	  1.513e-002 	             	
        84.547	             	  3.522e-001 	
        84.576	  1.517e-002 	             	
        84.611	             	  3.522e-001 	
        84.640	  1.510e-002 	             	
        84.704	  1.520e-002 	             	
        84.707	             	  3.523e-001 	
        84.768	  1.518e-002 	             	
        84.771	             	  3.523e-001 	
        84.832	  1.521e-002 	             	
        84.835	             	  3.524e-001 	
        84.896	  1.536e-002 	             	
        84.899	             	  3.524e-001 	
        84.960	  1.541e-002 	             	
        84.963	             	  3.524e-001 	
        85.024	  1.540e-002 	             	
        85.027	             	  3.524e-001 	
        85.088	  1.532e-002 	             	
        85.091	             	  3.524e-001 	
        85.152	  1.530e-002 	             	
        85.155	             	  3.525e-001 	
        85.219	             	  3.525e-001 	
        85.248	  1.530e-002 	             	
        85.283	             	  3.525e-001 	
        85.312	  1.530e-002 	             	
        85.347	             	  3.525e-001 	
        85.376	  1.539e-002 	             	
        85.411	             	  3.526e-001 	
        85.440	  1.543e-002 	             	
        85.504	  1.538e-002 	             	
        85.507	             	  3.527e-001 	
        85.568	  1.542e-002 	             	
        85.571	             	  3.527e-001 	
        85.632	  1.548e-002 	             	
        85.635	             	  3.527e-001 	
        85.696	  1.560e-002 	             	
        85.699	             	  3.528e-001 	
        85.760	  1.559e-002 	             	
        85.763	             	  3.528e-001 	
        85.824	  1.552e-002 	             	
        85.827	             	  3.528e-001 	
        85.888	  1.556e-002 	             	
        85.891	             	  3.528e-001 	
        85.952	  1.555e-002 	             	
        85.955	             	  3.528e-001 	
        86.019	             	  3.527e-001 	
        86.048	  1.554e-002 	             	
        86.083	             	  3.527e-001 	
        86.112	  1.556e-002 	             	
        86.147	             	  3.527e-001 	
        86.176	  1.553e-002 	             	
        86.211	             	  3.526e-001 	
        86.240	  1.542e-002 	             	
        86.304	  1.537e-002 	             	
        86.307	             	  3.526e-001 	
        86.368	  1.536e-002 	             	
        86.371	             	  3.526e-001 	
        86.432	  1.525e-002 	             	
        86.435	             	  3.527e-001 	
        86.496	  1.530e-002 	             	
        86.499	             	  3.527e-001 	
        86.560	  1.522e-002 	             	
        86.563	             	  3.528e-001 	
        86.624	  1.516e-002 	             	
        86.627	             	  3.528e-001 	
        86.688	  1.507e-002 	             	
        86.691	             	  3.527e-001 	
        86.752	  1.500e-002 	             	
        86.755	             	  3.527e-001 	
        86.819	             	  3.527e-001 	
        86.848	  1.495e-002 	             	
        86.883	             	  3.526e-001 	
        86.912	  1.494e-002 	             	
        86.947	             	  3.526e-001 	
        86.976	  1.491e-002 	             	
        87.011	             	  3.526e-001 	
        87.040	  1.487e-002 	             	
        87.104	  1.476e-002 	             	
        87.107	             	  3.526e-001 	
        87.168	  1.469e-002 	             	
        87.171	             	  3.526e-001 	
        87.232	  1.476e-002 	             	
        87.235	             	  3.527e-001 	
        87.296	  1.476e-002 	             	
        87.299	             	  3.526e-001 	
        87.360	  1.487e-002 	             	
        87.363	             	  3.526e-001 	
        87.424	  1.483e-002 	             	
        87.427	             	  3.526e-001 	
        87.488	  1.487e-002 	             	
        87.491	             	  3.525e-001 	
        87.552	  1.490e-002 	             	
        87.555	             	  3.525e-001 	
        87.619	             	  3.525e-001 	
        87.648	  1.486e-002 	             	
        87.683	             	  3.524e-001 	
        87.712	  1.505e-002 	             	
        87.747	             	  3.523e-001 	
        87.776	  1.507e-002 	             	
        87.811	             	  3.523e-001 	
        87.840	  1.513e-002 	             	
        87.904	  1.509e-002 	             	
        87.907	             	  3.523e-001 	
        87.968	  1.514e-002 	             	
        87.971	             	  3.523e-001 	
        88.032	  1.515e-002 	             	
        88.035	             	  3.523e-001 	
        88.096	  1.523e-002 	             	
        88.099	             	  3.523e-001 	
        88.160	  1.526e-002 	             	
        88.163	             	  3.523e-001 	
        88.224	  1.523e-002 	             	
        88.227	             	  3.522e-001 	
        88.288	  1.517e-002 	             	
        88.291	             	  3.522e-001 	
        88.352	  1.520e-002 	             	
        88.355	             	  3.522e-001 	
        88.419	             	  3.522e-001 	
        88.448	  1.515e-002 	             	
        88.483	             	  3.522e-001 	
        88.512	  1.519e-002 	             	
        88.547	             	  3.522e-001 	
        88.576	  1.518e-002 	             	
        88.611	             	  3.522e-001 	
        88.640	  1.514e-002 	             	
        88.704	  1.513e-002 	             	
        88.707	             	  3.523e-001 	
        88.768	  1.520e-002 	             	
        88.771	             	  3.523e-001 	
        88.832	  1.515e-002 	             	
        88.835	             	  3.523e-001 	
        88.896	  1.507e-002 	             	
        88.899	             	  3.522e-001 	
        88.960	  1.511e-002 	             	
        88.963	             	  3.522e-001 	
        89.024	  1.505e-002 	             	
        89.027	             	  3.522e-001 	
        89.088	  1.499e-002 	             	
        89.091	             	  3.522e-001 	
        89.153	  1.493e-002 	             	
        89.156	             	  3.522e-001 	
        89.220	             	  3.522e-001 	
        89.249	  1.493e-002 	             	
        89.284	             	  3.522e-001 	
        89.313	  1.487e-002 	             	
        89.348	             	  3.522e-001 	
        89.377	  1.484e-002 	             	
        89.412	             	  3.522e-001 	
        89.441	  1.485e-002 	             	
        89.505	  1.476e-002 	             	
        89.508	             	  3.522e-001 	
        89.569	  1.474e-002 	             	
        89.572	             	  3.522e-001 	
        89.633	  1.472e-002 	             	
        89.636	             	  3.522e-001 	
        89.697	  1.465e-002 	             	
        89.700	             	  3.522e-001 	
        89.761	  1.467e-002 	             	
        89.764	             	  3.521e-001 	
        89.825	  1.468e-002 	             	
        89.828	             	  3.521e-001 	
        89.889	  1.467e-002 	             	
        89.892	             	  3.521e-001 	
        89.953	  1.466e-002 	             	
        89.956	             	  3.522e-001 	
        90.020	             	  3.522e-001 	
        90.049	  1.466e-002 	             	
        90.084	             	  3.523e-001 	
        90.113	  1.463e-002 	             	
        90.148	             	  3.522e-001 	
        90.177	  1.460e-002 	             	
        90.212	             	  3.522e-001 	
        90.241	  1.460e-002 	             	
        90.276	             	  3.522e-001 	
        90.305	  1.466e-002 	             	
        90.369	  1.465e-002 	             	
        90.372	             	  3.522e-001 	
        90.433	  1.464e-002 	             	
        90.436	             	  3.522e-001 	
        90.497	  1.464e-002 	             	
        90.500	             	  3.523e-001 	
        90.561	  1.465e-002 	             	
        90.564	             	  3.522e-001 	
        90.625	  1.471e-002 	             	
        90.628	             	  3.521e-001 	
        90.689	  1.470e-002 	             	
        90.692	             	  3.521e-001 	
        90.753	  1.478e-002 	             	
        90.756	             	  3.521e-001 	
        90.820	             	  3.521e-001 	
        90.849	  1.471e-002 	             	
        90.884	             	  3.521e-001 	
        90.913	  1.475e-002 	             	
        90.948	             	  3.522e-001 	
        90.977	  1.476e-002 	             	
        91.012	             	  3.522e-001 	
        91.041	  1.475e-002 	             	
        91.076	             	  3.522e-001 	
        91.105	  1.475e-002 	             	
        91.169	  1.477e-002 	             	
        91.172	             	  3.521e-001 	
        91.233	  1.477e-002 	             	
        91.236	             	  3.521e-001 	
        91.297	  1.475e-002 	             	
        91.300	             	  3.521e-001 	
        91.361	  1.468e-002 	             	
        91.364	             	  3.521e-001 	
        91.425	  1.475e-002 	             	
        91.428	             	  3.520e-001 	
        91.489	  1.483e-002 	             	
        91.492	             	  3.520e-001 	
        91.553	  1.469e-002 	             	
        91.556	             	  3.520e-001 	
        91.620	             	  3.521e-001 	
        91.649	  1.459e-002 	             	
        91.684	             	  3.522e-001 	
        91.713	  1.460e-002 	             	
        91.748	             	  3.523e-001 	
        91.777	  1.454e-002 	             	
        91.812	             	  3.523e-001 	
        91.841	  1.455e-002 	             	
        91.876	             	  3.523e-001 	
        91.905	  1.454e-002 	             	
        91.969	  1.447e-002 	             	
        91.972	             	  3.524e-001 	
        92.033	  1.444e-002 	             	
        92.036	             	  3.524e-001 	
        92.097	  1.438e-002 	             	
        92.100	             	  3.524e-001 	
        92.161	  1.445e-002 	             	
        92.164	             	  3.524e-001 	
        92.225	  1.449e-002 	             	
        92.228	             	  3.523e-001 	
        92.289	  1.445e-002 	             	
        92.292	             	  3.523e-001 	
        92.353	  1.444e-002 	             	
        92.356	             	  3.523e-001 	
        92.420	             	  3.522e-001 	
        92.449	  1.451e-002 	             	
        92.484	             	  3.522e-001 	
        92.513	  1.453e-002 	             	
        92.551	             	  3.522e-001 	
        92.577	  1.453e-002 	             	
        92.612	             	  3.523e-001 	
        92.641	  1.449e-002 	             	
        92.676	             	  3.523e-001 	
        92.705	  1.455e-002 	             	
        92.769	  1.455e-002 	             	
        92.772	             	  3.524e-001 	
        92.833	  1.454e-002 	             	
        92.836	             	  3.524e-001 	
        92.897	  1.453e-002 	             	
        92.900	             	  3.524e-001 	
        92.961	  1.451e-002 	             	
        92.963	             	  3.523e-001 	
        93.025	  1.457e-002 	             	
        93.028	             	  3.523e-001 	
        93.089	  1.455e-002 	             	
        93.091	             	  3.523e-001 	
        93.153	  1.456e-002 	             	
        93.156	             	  3.523e-001 	
        93.220	             	  3.523e-001 	
        93.249	  1.460e-002 	             	
        93.284	             	  3.522e-001 	
        93.313	  1.457e-002 	             	
        93.347	             	  3.522e-001 	
        93.377	  1.456e-002 	             	
        93.412	             	  3.522e-001 	
        93.441	  1.458e-002 	             	
        93.476	             	  3.522e-001 	
        93.505	  1.454e-002 	             	
        93.569	  1.462e-002 	             	
        93.572	             	  3.522e-001 	
        93.633	  1.462e-002 	             	
        93.636	             	  3.521e-001 	
        93.697	  1.455e-002 	             	
        93.700	             	  3.522e-001 	
        93.761	  1.463e-002 	             	
        93.763	             	  3.522e-001 	
        93.825	  1.466e-002 	             	
        93.827	             	  3.522e-001 	
        93.889	  1.455e-002 	             	
        93.892	             	  3.522e-001 	
        93.953	  1.447e-002 	             	
        93.956	             	  3.522e-001 	
        94.020	             	  3.523e-001 	
        94.049	  1.443e-002 	             	
        94.083	             	  3.523e-001 	
        94.113	  1.441e-002 	             	
        94.147	             	  3.522e-001 	
        94.177	  1.442e-002 	             	
        94.212	             	  3.521e-001 	
        94.241	  1.453e-002 	             	
        94.276	             	  3.520e-001 	
        94.305	  1.449e-002 	             	
        94.369	  1.452e-002 	             	
        94.372	             	  3.518e-001 	
        94.433	  1.453e-002 	             	
        94.435	             	  3.519e-001 	
        94.497	  1.450e-002 	             	
        94.499	             	  3.519e-001 	
        94.561	  1.445e-002 	             	
        94.563	             	  3.520e-001 	
        94.625	  1.442e-002 	             	
        94.628	             	  3.520e-001 	
        94.689	  1.437e-002 	             	
        94.691	             	  3.522e-001 	
        94.753	  1.436e-002 	             	
        94.755	             	  3.523e-001 	
        94.817	  1.441e-002 	             	
        94.820	             	  3.523e-001 	
        94.883	             	  3.523e-001 	
        94.913	  1.435e-002 	             	
        94.947	             	  3.524e-001 	
        94.977	  1.431e-002 	             	
        95.011	             	  3.522e-001 	
        95.041	  1.427e-002 	             	
        95.075	             	  3.522e-001 	
        95.105	  1.423e-002 	             	
        95.169	  1.419e-002 	             	
        95.171	             	  3.521e-001 	
        95.233	  1.414e-002 	             	
        95.235	             	  3.522e-001 	
        95.297	  1.419e-002 	             	
        95.299	             	  3.521e-001 	
        95.361	  1.424e-002 	             	
        95.363	             	  3.521e-001 	
        95.425	  1.413e-002 	             	
        95.427	             	  3.520e-001 	
        95.489	  1.407e-002 	             	
        95.491	             	  3.520e-001 	
        95.553	  1.413e-002 	             	
        95.555	             	  3.520e-001 	
        95.617	  1.414e-002 	             	
        95.620	             	  3.521e-001 	
        95.683	             	  3.521e-001 	
        95.712	  1.421e-002 	             	
        95.747	             	  3.521e-001 	
        95.777	  1.420e-002 	             	
        95.811	             	  3.522e-001 	
        95.841	  1.412e-002 	             	
        95.875	             	  3.523e-001 	
        95.904	  1.415e-002 	             	
        95.969	  1.405e-002 	             	
        95.971	             	  3.523e-001 	
        96.033	  1.405e-002 	             	
        96.035	             	  3.523e-001 	
        96.097	  1.411e-002 	             	
        96.099	             	  3.523e-001 	
        96.160	  1.410e-002 	             	
        96.163	             	  3.522e-001 	
        96.225	  1.416e-002 	             	
        96.227	             	  3.522e-001 	
        96.289	  1.412e-002 	             	
        96.291	             	  3.522e-001 	
        96.352	  1.415e-002 	             	
        96.355	             	  3.522e-001 	
        96.417	  1.410e-002 	             	
        96.419	             	  3.522e-001 	
        96.483	             	  3.522e-001 	
        96.512	  1.415e-002 	             	
        96.547	             	  3.521e-001 	
        96.576	  1.416e-002 	             	
        96.611	             	  3.522e-001 	
        96.641	  1.417e-002 	             	
        96.675	             	  3.521e-001 	
        96.705	  1.418e-002 	             	
        96.768	  1.414e-002 	             	
        96.771	             	  3.521e-001 	
        96.832	  1.405e-002 	             	
        96.835	             	  3.521e-001 	
        96.897	  1.397e-002 	             	
        96.899	             	  3.521e-001 	
        96.961	  1.402e-002 	             	
        96.963	             	  3.520e-001 	
        97.024	  1.396e-002 	             	
        97.027	             	  3.520e-001 	
        97.089	  1.400e-002 	             	
        97.091	             	  3.520e-001 	
        97.153	  1.401e-002 	             	
        97.155	             	  3.520e-001 	
        97.217	  1.399e-002 	             	
        97.219	             	  3.520e-001 	
        97.283	             	  3.520e-001 	
        97.312	  1.402e-002 	             	
        97.347	             	  3.520e-001 	
        97.376	  1.399e-002 	             	
        97.411	             	  3.520e-001 	
        97.440	  1.402e-002 	             	
        97.475	             	  3.520e-001 	
        97.505	  1.407e-002 	             	
        97.568	  1.406e-002 	             	
        97.571	             	  3.520e-001 	
        97.632	  1.414e-002 	             	
        97.635	             	  3.521e-001 	
        97.696	  1.419e-002 	             	
        97.699	             	  3.521e-001 	
        97.760	  1.424e-002 	             	
        97.763	             	  3.521e-001 	
        97.824	  1.417e-002 	             	
        97.827	             	  3.522e-001 	
        97.889	  1.420e-002 	             	
        97.891	             	  3.522e-001 	
        97.952	  1.428e-002 	             	
        97.955	             	  3.521e-001 	
        98.016	  1.438e-002 	             	
        98.019	             	  3.520e-001 	
        98.083	             	  3.520e-001 	
        98.112	  1.432e-002 	             	
        98.147	             	  3.519e-001 	
        98.176	  1.438e-002 	             	
        98.211	             	  3.519e-001 	
        98.240	  1.438e-002 	             	
        98.275	             	  3.519e-001 	
        98.304	  1.434e-002 	             	
        98.368	  1.438e-002 	             	
        98.371	             	  3.520e-001 	
        98.432	  1.440e-002 	             	
        98.435	             	  3.520e-001 	
        98.496	  1.444e-002 	             	
        98.499	             	  3.520e-001 	
        98.560	  1.435e-002 	             	
        98.563	             	  3.519e-001 	
        98.624	  1.438e-002 	             	
        98.627	             	  3.519e-001 	
        98.688	  1.441e-002 	             	
        98.691	             	  3.519e-001 	
        98.752	  1.434e-002 	             	
        98.755	             	  3.518e-001 	
        98.816	  1.438e-002 	             	
        98.819	             	  3.518e-001 	
        98.883	             	  3.518e-001 	
        98.912	  1.436e-002 	             	
        98.947	             	  3.519e-001 	
        98.976	  1.438e-002 	             	
        99.011	             	  3.519e-001 	
        99.040	  1.442e-002 	             	
        99.075	             	  3.520e-001 	
        99.104	  1.442e-002 	             	
        99.168	  1.441e-002 	             	
        99.171	             	  3.519e-001 	
        99.232	  1.442e-002 	             	
        99.235	             	  3.520e-001 	
        99.296	  1.442e-002 	             	
        99.299	             	  3.521e-001 	
        99.360	  1.439e-002 	             	
        99.363	             	  3.522e-001 	
        99.424	  1.443e-002 	             	
        99.427	             	  3.522e-001 	
        99.488	  1.444e-002 	             	
        99.491	             	  3.521e-001 	
        99.552	  1.454e-002 	             	
        99.555	             	  3.521e-001 	
        99.616	  1.448e-002 	             	
        99.619	             	  3.521e-001 	
        99.683	             	  3.521e-001 	
        99.712	  1.451e-002 	             	
        99.747	             	  3.521e-001 	
        99.776	  1.444e-002 	             	
        99.811	             	  3.522e-001 	
        99.840	  1.450e-002 	             	
        99.875	             	  3.522e-001 	
        99.904	  1.441e-002 	             	
        99.968	  1.450e-002 	             	
        99.971	             	  3.522e-001 	
       100.032	  1.449e-002 	             	
       100.035	             	  3.522e-001 	
       100.096	  1.434e-002 	             	
       100.099	             	  3.522e-001 	
       100.160	  1.442e-002 	             	
       100.163	             	  3.521e-001 	
       100.224	  1.441e-002 	             	
       100.227	             	  3.520e-001 	
       100.288	  1.439e-002 	             	
       100.291	             	  3.521e-001 	
       100.352	  1.439e-002 	             	
       100.355	             	  3.521e-001 	
       100.416	  1.428e-002 	             	
       100.419	             	  3.522e-001 	
       100.483	             	  3.523e-001 	
       100.512	  1.426e-002 	             	
       100.547	             	  3.524e-001 	
       100.576	  1.421e-002 	             	
       100.611	             	  3.524e-001 	
       100.640	  1.428e-002 	             	
       100.675	             	  3.523e-001 	
       100.704	  1.428e-002 	             	
       100.768	  1.426e-002 	             	
       100.771	             	  3.522e-001 	
       100.832	  1.424e-002 	             	
       100.835	             	  3.522e-001 	
       100.896	  1.428e-002 	             	
       100.899	             	  3.521e-001 	
       100.960	  1.423e-002 	             	
       100.963	             	  3.521e-001 	
       101.024	  1.414e-002 	             	
       101.027	             	  3.521e-001 	
       101.088	  1.408e-002 	             	
       101.091	             	  3.521e-001 	
       101.152	  1.405e-002 	             	
       101.155	             	  3.522e-001 	
       101.216	  1.406e-002 	             	
       101.219	             	  3.522e-001 	
       101.283	             	  3.523e-001 	
       101.312	  1.408e-002 	             	
       101.347	             	  3.524e-001 	
       101.376	  1.409e-002 	             	
       101.411	             	  3.524e-001 	
       101.440	  1.416e-002 	             	
       101.475	             	  3.524e-001 	
       101.504	  1.411e-002 	             	
       101.568	  1.411e-002 	             	
       101.571	             	  3.523e-001 	
       101.632	  1.413e-002 	             	
       101.635	             	  3.522e-001 	
       101.696	  1.409e-002 	             	
       101.699	             	  3.522e-001 	
       101.760	  1.419e-002 	             	
       101.763	             	  3.522e-001 	
       101.824	  1.416e-002 	             	
       101.827	             	  3.522e-001 	
       101.888	  1.419e-002 	             	
       101.891	             	  3.522e-001 	
       101.952	  1.412e-002 	             	
       101.955	             	  3.522e-001 	
       102.016	  1.415e-002 	             	
       102.019	             	  3.522e-001 	
       102.083	             	  3.522e-001 	
       102.112	  1.412e-002 	             	
       102.147	             	  3.521e-001 	
       102.176	  1.411e-002 	             	
       102.211	             	  3.522e-001 	
       102.240	  1.410e-002 	             	
       102.275	             	  3.522e-001 	
       102.304	  1.414e-002 	             	
       102.368	  1.422e-002 	             	
       102.371	             	  3.521e-001 	
       102.432	  1.426e-002 	             	
       102.435	             	  3.521e-001 	
       102.496	  1.422e-002 	             	
       102.499	             	  3.520e-001 	
       102.560	  1.423e-002 	             	
       102.563	             	  3.520e-001 	
       102.624	  1.424e-002 	             	
       102.627	             	  3.520e-001 	
       102.688	  1.421e-002 	             	
       102.691	             	  3.521e-001 	
       102.752	  1.429e-002 	             	
       102.755	             	  3.521e-001 	
       102.816	  1.428e-002 	             	
       102.819	             	  3.520e-001 	
       102.883	             	  3.519e-001 	
       102.912	  1.427e-002 	             	
       102.947	             	  3.519e-001 	
       102.976	  1.428e-002 	             	
       103.011	             	  3.519e-001 	
       103.040	  1.431e-002 	             	
       103.075	             	  3.519e-001 	
       103.104	  1.432e-002 	             	
       103.139	             	  3.519e-001 	
       103.168	  1.436e-002 	             	
       103.232	  1.433e-002 	             	
       103.235	             	  3.520e-001 	
       103.296	  1.445e-002 	             	
       103.299	             	  3.520e-001 	
       103.360	  1.441e-002 	             	
       103.363	             	  3.520e-001 	
       103.424	  1.435e-002 	             	
       103.427	             	  3.521e-001 	
       103.488	  1.433e-002 	             	
       103.491	             	  3.521e-001 	
       103.552	  1.438e-002 	             	
       103.555	             	  3.521e-001 	
       103.616	  1.430e-002 	             	
       103.619	             	  3.521e-001 	
       103.683	             	  3.521e-001 	
       103.712	  1.425e-002 	             	
       103.747	             	  3.520e-001 	
       103.776	  1.422e-002 	             	
       103.811	             	  3.520e-001 	
       103.840	  1.419e-002 	             	
       103.875	             	  3.520e-001 	
       103.904	  1.420e-002 	             	
       103.939	             	  3.520e-001 	
       103.968	  1.417e-002 	             	
       104.032	  1.414e-002 	             	
       104.035	             	  3.521e-001 	
       104.096	  1.416e-002 	             	
       104.099	             	  3.521e-001 	
       104.160	  1.418e-002 	             	
       104.163	             	  3.520e-001 	
       104.224	  1.413e-002 	             	
       104.227	             	  3.520e-001 	
       104.288	  1.407e-002 	             	
       104.291	             	  3.520e-001 	
       104.352	  1.409e-002 	             	
       104.355	             	  3.519e-001 	
       104.416	  1.409e-002 	             	
       104.419	             	  3.519e-001 	
       104.483	             	  3.519e-001 	
       104.512	  1.417e-002 	             	
       104.547	             	  3.519e-001 	
       104.576	  1.416e-002 	             	
       104.611	             	  3.519e-001 	
       104.640	  1.413e-002 	             	
       104.675	             	  3.519e-001 	
       104.704	  1.411e-002 	             	
       104.739	             	  3.519e-001 	
       104.768	  1.414e-002 	             	
       104.832	  1.411e-002 	             	
       104.835	             	  3.519e-001 	
       104.896	  1.404e-002 	             	
       104.899	             	  3.519e-001 	
       104.960	  1.412e-002 	             	
       104.963	             	  3.520e-001 	
       105.024	  1.410e-002 	             	
       105.027	             	  3.520e-001 	
       105.088	  1.404e-002 	             	
       105.091	             	  3.520e-001 	
       105.152	  1.419e-002 	             	
       105.155	             	  3.521e-001 	
       105.216	  1.410e-002 	             	
       105.219	             	  3.521e-001 	
       105.283	             	  3.521e-001 	
       105.312	  1.409e-002 	             	
       105.347	             	  3.521e-001 	
       105.376	  1.408e-002 	             	
       105.411	             	  3.521e-001 	
       105.440	  1.414e-002 	             	
       105.475	             	  3.521e-001 	
       105.504	  1.415e-002 	             	
       105.539	             	  3.521e-001 	
       105.568	  1.411e-002 	             	
       105.632	  1.413e-002 	             	
       105.635	             	  3.522e-001 	
       105.696	  1.407e-002 	             	
       105.699	             	  3.522e-001 	
       105.760	  1.408e-002 	             	
       105.763	             	  3.523e-001 	
       105.824	  1.395e-002 	             	
       105.827	             	  3.523e-001 	
       105.888	  1.393e-002 	             	
       105.891	             	  3.523e-001 	
       105.952	  1.387e-002 	             	
       105.955	             	  3.523e-001 	
       106.016	  1.390e-002 	             	
       106.019	             	  3.522e-001 	
       106.080	  1.385e-002 	             	
       106.083	             	  3.522e-001 	
       106.147	             	  3.523e-001 	
       106.176	  1.382e-002 	             	
       106.211	             	  3.523e-001 	
       106.240	  1.379e-002 	             	
       106.275	             	  3.523e-001 	
       106.304	  1.367e-002 	             	
       106.339	             	  3.523e-001 	
       106.368	  1.367e-002 	             	
       106.432	  1.366e-002 	             	
       106.435	             	  3.523e-001 	
       106.496	  1.363e-002 	             	
       106.499	             	  3.523e-001 	
       106.560	  1.362e-002 	             	
       106.563	             	  3.524e-001 	
       106.624	  1.358e-002 	             	
       106.627	             	  3.524e-001 	
       106.689	  1.355e-002 	             	
       106.692	             	  3.525e-001 	
       106.753	  1.352e-002 	             	
       106.756	             	  3.525e-001 	
       106.817	  1.350e-002 	             	
       106.820	             	  3.525e-001 	
       106.884	             	  3.525e-001 	
       106.913	  1.350e-002 	             	
       106.948	             	  3.525e-001 	
       106.977	  1.361e-002 	             	
       107.012	             	  3.524e-001 	
       107.041	  1.359e-002 	             	
       107.076	             	  3.524e-001 	
       107.105	  1.356e-002 	             	
       107.140	             	  3.524e-001 	
       107.169	  1.359e-002 	             	
       107.233	  1.356e-002 	             	
       107.236	             	  3.524e-001 	
       107.297	  1.356e-002 	             	
       107.300	             	  3.524e-001 	
       107.361	  1.363e-002 	             	
       107.364	             	  3.524e-001 	
       107.425	  1.367e-002 	             	
       107.428	             	  3.525e-001 	
       107.489	  1.368e-002 	             	
       107.492	             	  3.525e-001 	
       107.553	  1.357e-002 	             	
       107.556	             	  3.525e-001 	
       107.617	  1.369e-002 	             	
       107.620	             	  3.525e-001 	
       107.681	  1.361e-002 	             	
       107.684	             	  3.525e-001 	
       107.748	             	  3.526e-001 	
       107.777	  1.371e-002 	             	
       107.812	             	  3.526e-001 	
       107.841	  1.364e-002 	             	
       107.876	             	  3.526e-001 	
       107.905	  1.372e-002 	             	
       107.940	             	  3.527e-001 	
       107.969	  1.392e-002 	             	
       108.033	  1.393e-002 	             	
       108.036	             	  3.528e-001 	
       108.097	  1.395e-002 	             	
       108.100	             	  3.528e-001 	
       108.161	  1.400e-002 	             	
       108.164	             	  3.528e-001 	
       108.225	  1.390e-002 	             	
       108.228	             	  3.527e-001 	
       108.289	  1.394e-002 	             	
       108.292	             	  3.527e-001 	
       108.353	  1.388e-002 	             	
       108.356	             	  3.527e-001 	
       108.417	  1.392e-002 	             	
       108.420	             	  3.526e-001 	
       108.481	  1.386e-002 	             	
       108.484	             	  3.526e-001 	
       108.548	             	  3.527e-001 	
       108.577	  1.380e-002 	             	
       108.612	             	  3.528e-001 	
       108.641	  1.381e-002 	             	
       108.676	             	  3.527e-001 	
       108.705	  1.378e-002 	             	
       108.740	             	  3.527e-001 	
       108.769	  1.378e-002 	             	
       108.833	  1.383e-002 	             	
       108.836	             	  3.527e-001 	
       108.897	  1.382e-002 	             	
       108.900	             	  3.528e-001 	
       108.961	  1.383e-002 	             	
       108.964	             	  3.527e-001 	
       109.025	  1.378e-002 	             	
       109.028	             	  3.527e-001 	
       109.089	  1.379e-002 	             	
       109.092	             	  3.528e-001 	
       109.153	  1.369e-002 	             	
       109.156	             	  3.527e-001 	
       109.217	  1.377e-002 	             	
       109.220	             	  3.527e-001 	
       109.281	  1.371e-002 	             	
       109.284	             	  3.527e-001 	
       109.348	             	  3.526e-001 	
       109.377	  1.373e-002 	             	
       109.412	             	  3.526e-001 	
       109.441	  1.377e-002 	             	
       109.476	             	  3.525e-001 	
       109.505	  1.375e-002 	             	
       109.540	             	  3.525e-001 	
       109.569	  1.370e-002 	             	
       109.633	  1.370e-002 	             	
       109.636	             	  3.525e-001 	
       109.697	  1.368e-002 	             	
       109.700	             	  3.525e-001 	
       109.761	  1.370e-002 	             	
       109.764	             	  3.526e-001 	
       109.825	  1.365e-002 	             	
       109.828	             	  3.527e-001 	
       109.889	  1.369e-002 	             	
       109.892	             	  3.528e-001 	
       109.953	  1.372e-002 	             	
       109.956	             	  3.528e-001 	
       110.017	  1.362e-002 	             	
       110.020	             	  3.528e-001 	
       110.081	  1.366e-002 	             	
       110.084	             	  3.528e-001 	
       110.148	             	  3.528e-001 	
       110.177	  1.365e-002 	             	
       110.212	             	  3.527e-001 	
       110.241	  1.368e-002 	             	
       110.276	             	  3.526e-001 	
       110.305	  1.363e-002 	             	
       110.340	             	  3.526e-001 	
       110.369	  1.364e-002 	             	
       110.433	  1.365e-002 	             	
       110.436	             	  3.527e-001 	
       110.497	  1.361e-002 	             	
       110.500	             	  3.527e-001 	
       110.561	  1.358e-002 	             	
       110.563	             	  3.528e-001 	
       110.625	  1.358e-002 	             	
       110.628	             	  3.528e-001 	
       110.689	  1.352e-002 	             	
       110.692	             	  3.527e-001 	
       110.753	  1.349e-002 	             	
       110.756	             	  3.527e-001 	
       110.817	  1.344e-002 	             	
       110.820	             	  3.527e-001 	
       110.881	  1.343e-002 	             	
       110.883	             	  3.527e-001 	
       110.948	             	  3.527e-001 	
       110.977	  1.335e-002 	             	
       111.012	             	  3.528e-001 	
       111.041	  1.336e-002 	             	
       111.076	             	  3.528e-001 	
       111.105	  1.340e-002 	             	
       111.140	             	  3.528e-001 	
       111.169	  1.331e-002 	             	
       111.233	  1.327e-002 	             	
       111.236	             	  3.528e-001 	
       111.297	  1.320e-002 	             	
       111.300	             	  3.528e-001 	
       111.361	  1.324e-002 	             	
       111.364	             	  3.528e-001 	
       111.425	  1.310e-002 	             	
       111.428	             	  3.527e-001 	
       111.489	  1.305e-002 	             	
       111.492	             	  3.528e-001 	
       111.553	  1.300e-002 	             	
       111.555	             	  3.528e-001 	
       111.617	  1.297e-002 	             	
       111.619	             	  3.528e-001 	
       111.681	  1.294e-002 	             	
       111.684	             	  3.528e-001 	
       111.747	             	  3.529e-001 	
       111.777	  1.291e-002 	             	
       111.811	             	  3.529e-001 	
       111.841	  1.290e-002 	             	
       111.875	             	  3.529e-001 	
       111.905	  1.295e-002 	             	
       111.940	             	  3.529e-001 	
       111.969	  1.298e-002 	             	
       112.033	  1.294e-002 	             	
       112.036	             	  3.529e-001 	
       112.097	  1.284e-002 	             	
       112.099	             	  3.529e-001 	
       112.161	  1.289e-002 	             	
       112.163	             	  3.529e-001 	
       112.225	  1.285e-002 	             	
       112.227	             	  3.530e-001 	
       112.289	  1.280e-002 	             	
       112.292	             	  3.530e-001 	
       112.353	  1.288e-002 	             	
       112.355	             	  3.529e-001 	
       112.417	  1.301e-002 	             	
       112.419	             	  3.529e-001 	
       112.481	  1.297e-002 	             	
       112.483	             	  3.529e-001 	
       112.548	             	  3.529e-001 	
       112.577	  1.304e-002 	             	
       112.611	             	  3.529e-001 	
       112.641	  1.312e-002 	             	
       112.675	             	  3.529e-001 	
       112.705	  1.314e-002 	             	
       112.739	             	  3.529e-001 	
       112.769	  1.316e-002 	             	
       112.833	  1.313e-002 	             	
       112.835	             	  3.528e-001 	
       112.897	  1.312e-002 	             	
       112.900	             	  3.528e-001 	
       112.961	  1.311e-002 	             	
       112.963	             	  3.529e-001 	
       113.025	  1.313e-002 	             	
       113.027	             	  3.529e-001 	
       113.089	  1.319e-002 	             	
       113.091	             	  3.528e-001 	
       113.153	  1.319e-002 	             	
       113.155	             	  3.529e-001 	
       113.217	  1.327e-002 	             	
       113.219	             	  3.529e-001 	
       113.281	  1.325e-002 	             	
       113.283	             	  3.530e-001 	
       113.347	             	  3.530e-001 	
       113.377	  1.321e-002 	             	
       113.411	             	  3.529e-001 	
       113.441	  1.329e-002 	             	
       113.475	             	  3.529e-001 	
       113.505	  1.325e-002 	             	
       113.539	             	  3.528e-001 	
       113.569	  1.321e-002 	             	
       113.633	  1.319e-002 	             	
       113.635	             	  3.528e-001 	
       113.697	  1.319e-002 	             	
       113.699	             	  3.529e-001 	
       113.761	  1.319e-002 	             	
       113.763	             	  3.528e-001 	
       113.824	  1.315e-002 	             	
       113.827	             	  3.527e-001 	
       113.889	  1.314e-002 	             	
       113.891	             	  3.527e-001 	
       113.952	  1.318e-002 	             	
       113.955	             	  3.527e-001 	
       114.017	  1.310e-002 	             	
       114.019	             	  3.526e-001 	
       114.081	  1.304e-002 	             	
       114.083	             	  3.527e-001 	
       114.147	             	  3.527e-001 	
       114.177	  1.305e-002 	             	
       114.211	             	  3.527e-001 	
       114.240	  1.308e-002 	             	
       114.275	             	  3.527e-001 	
       114.305	  1.305e-002 	             	
       114.339	             	  3.526e-001 	
       114.369	  1.307e-002 	             	
       114.433	  1.308e-002 	             	
       114.435	             	  3.526e-001 	
       114.496	  1.306e-002 	             	
       114.499	             	  3.525e-001 	
       114.560	  1.307e-002 	             	
       114.563	             	  3.525e-001 	
       114.624	  1.308e-002 	             	
       114.627	             	  3.526e-001 	
       114.688	  1.304e-002 	             	
       114.691	             	  3.526e-001 	
       114.752	  1.307e-002 	             	
       114.755	             	  3.527e-001 	
       114.816	  1.298e-002 	             	
       114.819	             	  3.527e-001 	
       114.880	  1.301e-002 	             	
       114.883	             	  3.527e-001 	
       114.948	             	  3.527e-001 	
       114.976	  1.298e-002 	             	
       115.011	             	  3.527e-001 	
       115.040	  1.298e-002 	             	
       115.075	             	  3.527e-001 	
       115.104	  1.295e-002 	             	
       115.139	             	  3.526e-001 	
       115.168	  1.285e-002 	             	
       115.232	  1.276e-002 	             	
       115.235	             	  3.526e-001 	
       115.296	  1.280e-002 	             	
       115.299	             	  3.526e-001 	
       115.360	  1.291e-002 	             	
       115.363	             	  3.526e-001 	
       115.424	  1.292e-002 	             	
       115.427	             	  3.526e-001 	
       115.488	  1.286e-002 	             	
       115.491	             	  3.525e-001 	
       115.552	  1.290e-002 	             	
       115.555	             	  3.524e-001 	
       115.616	  1.297e-002 	             	
       115.619	             	  3.524e-001 	
       115.680	  1.293e-002 	             	
       115.683	             	  3.525e-001 	
       115.747	             	  3.525e-001 	
       115.776	  1.295e-002 	             	
       115.811	             	  3.525e-001 	
       115.840	  1.294e-002 	             	
       115.875	             	  3.526e-001 	
       115.904	  1.293e-002 	             	
       115.939	             	  3.526e-001 	
       115.968	  1.295e-002 	             	
       116.003	             	  3.526e-001 	
       116.032	  1.292e-002 	             	
       116.096	  1.291e-002 	             	
       116.099	             	  3.526e-001 	
       116.160	  1.289e-002 	             	
       116.163	             	  3.527e-001 	
       116.224	  1.282e-002 	             	
       116.227	             	  3.527e-001 	
       116.288	  1.278e-002 	             	
       116.291	             	  3.527e-001 	
       116.352	  1.276e-002 	             	
       116.355	             	  3.527e-001 	
       116.417	  1.269e-002 	             	
       116.419	             	  3.527e-001 	
       116.480	  1.267e-002 	             	
       116.483	             	  3.527e-001 	
       116.547	             	  3.527e-001 	
       116.576	  1.271e-002 	             	
       116.611	             	  3.526e-001 	
       116.640	  1.269e-002 	             	
       116.675	             	  3.527e-001 	
       116.704	  1.263e-002 	             	
       116.739	             	  3.527e-001 	
       116.768	  1.268e-002 	             	
       116.803	             	  3.527e-001 	
       116.832	  1.268e-002 	             	
       116.896	  1.267e-002 	             	
       116.899	             	  3.527e-001 	
       116.960	  1.266e-002 	             	
       116.963	             	  3.528e-001 	
       117.024	  1.268e-002 	             	
       117.027	             	  3.527e-001 	
       117.088	  1.267e-002 	             	
       117.091	             	  3.527e-001 	
       117.152	  1.253e-002 	             	
       117.155	             	  3.526e-001 	
       117.216	  1.251e-002 	             	
       117.219	             	  3.526e-001 	
       117.280	  1.237e-002 	             	
       117.283	             	  3.526e-001 	
       117.347	             	  3.526e-001 	
       117.376	  1.236e-002 	             	
       117.411	             	  3.526e-001 	
       117.440	  1.231e-002 	             	
       117.475	             	  3.526e-001 	
       117.504	  1.224e-002 	             	
       117.539	             	  3.526e-001 	
       117.568	  1.221e-002 	             	
       117.603	             	  3.526e-001 	
       117.632	  1.211e-002 	             	
       117.696	  1.209e-002 	             	
       117.699	             	  3.527e-001 	
       117.760	  1.210e-002 	             	
       117.763	             	  3.527e-001 	
       117.824	  1.210e-002 	             	
       117.827	             	  3.528e-001 	
       117.888	  1.206e-002 	             	
       117.891	             	  3.528e-001 	
       117.952	  1.210e-002 	             	
       117.955	             	  3.528e-001 	
       118.016	  1.213e-002 	             	
       118.019	             	  3.527e-001 	
       118.080	  1.206e-002 	             	
       118.083	             	  3.527e-001 	
       118.147	             	  3.528e-001 	
       118.176	  1.208e-002 	             	
       118.211	             	  3.527e-001 	
       118.240	  1.207e-002 	             	
       118.275	             	  3.527e-001 	
       118.304	  1.205e-002 	             	
       118.339	             	  3.527e-001 	
       118.368	  1.207e-002 	             	
       118.403	             	  3.527e-001 	
       118.432	  1.202e-002 	             	
       118.496	  1.202e-002 	             	
       118.499	             	  3.528e-001 	
       118.560	  1.202e-002 	             	
       118.563	             	  3.527e-001 	
       118.624	  1.202e-002 	             	
       118.627	             	  3.527e-001 	
       118.688	  1.205e-002 	             	
       118.691	             	  3.527e-001 	
       118.752	  1.200e-002 	             	
       118.755	             	  3.527e-001 	
       118.816	  1.223e-002 	             	
       118.819	             	  3.527e-001 	
       118.880	  1.233e-002 	             	
       118.883	             	  3.527e-001 	
       118.947	             	  3.527e-001 	
       118.976	  1.239e-002 	             	
       119.011	             	  3.527e-001 	
       119.040	  1.236e-002 	             	
       119.075	             	  3.527e-001 	
       119.104	  1.245e-002 	             	
       119.139	             	  3.527e-001 	
       119.168	  1.237e-002 	             	
       119.203	             	  3.527e-001 	
       119.232	  1.241e-002 	             	
       119.296	  1.255e-002 	             	
       119.299	             	  3.528e-001 	
       119.360	  1.263e-002 	             	
       119.363	             	  3.528e-001 	
       119.424	  1.266e-002 	             	
       119.427	             	  3.528e-001 	
       119.488	  1.268e-002 	             	
       119.491	             	  3.528e-001 	
       119.552	  1.268e-002 	             	
       119.555	             	  3.528e-001 	
       119.616	  1.263e-002 	             	
       119.619	             	  3.529e-001 	
       119.680	  1.266e-002 	             	
       119.683	             	  3.529e-001 	
       119.744	  1.262e-002 	             	
       119.747	             	  3.529e-001 	
       119.811	             	  3.529e-001 	
       119.840	  1.263e-002 	             	
       119.875	             	  3.529e-001 	
       119.904	  1.261e-002 	             	
       119.939	             	  3.528e-001 	
       119.968	  1.263e-002 	             	
       120.003	             	  3.528e-001 	
       120.032	  1.258e-002 	             	
       120.096	  1.260e-002 	             	
       120.099	             	  3.528e-001 	
       120.160	  1.263e-002 	             	
       120.163	             	  3.528e-001 	
       120.224	  1.259e-002 	             	
       120.227	             	  3.527e-001 	
       120.288	  1.263e-002 	             	
       120.291	             	  3.527e-001 	
       120.352	  1.256e-002 	             	
       120.355	             	  3.527e-001 	
       120.416	  1.248e-002 	             	
       120.419	             	  3.527e-001 	
       120.480	  1.250e-002 	             	
       120.483	             	  3.527e-001 	
       120.544	  1.244e-002 	             	
       120.547	             	  3.527e-001 	
       120.611	             	  3.527e-001 	
       120.640	  1.248e-002 	             	
       120.675	             	  3.527e-001 	
       120.704	  1.250e-002 	             	
       120.739	             	  3.527e-001 	
       120.768	  1.259e-002 	             	
       120.803	             	  3.527e-001 	
       120.832	  1.251e-002 	             	
       120.896	  1.254e-002 	             	
       120.899	             	  3.528e-001 	
       120.960	  1.260e-002 	             	
       120.963	             	  3.528e-001 	
       121.024	  1.251e-002 	             	
       121.027	             	  3.529e-001 	
       121.088	  1.249e-002 	             	
       121.091	             	  3.529e-001 	
       121.152	  1.247e-002 	             	
       121.155	             	  3.530e-001 	
       121.216	  1.242e-002 	             	
       121.219	             	  3.530e-001 	
       121.280	  1.244e-002 	             	
       121.283	             	  3.530e-001 	
       121.344	  1.241e-002 	             	
       121.347	             	  3.530e-001 	
       121.411	             	  3.529e-001 	
       121.440	  1.238e-002 	             	
       121.475	             	  3.529e-001 	
       121.504	  1.232e-002 	             	
       121.539	             	  3.528e-001 	
       121.568	  1.234e-002 	             	
       121.603	             	  3.528e-001 	
       121.632	  1.232e-002 	             	
       121.696	  1.228e-002 	             	
       121.699	             	  3.527e-001 	
       121.760	  1.221e-002 	             	
       121.763	             	  3.526e-001 	
       121.824	  1.211e-002 	             	
       121.827	             	  3.525e-001 	
       121.888	  1.196e-002 	             	
       121.891	             	  3.525e-001 	
       121.952	  1.191e-002 	             	
       121.955	             	  3.526e-001 	
       122.016	  1.183e-002 	             	
       122.019	             	  3.526e-001 	
       122.080	  1.172e-002 	             	
       122.083	             	  3.526e-001 	
       122.147	             	  3.527e-001 	
       122.176	  1.166e-002 	             	
       122.211	             	  3.528e-001 	
       122.240	  1.164e-002 	             	
       122.275	             	  3.528e-001 	
       122.304	  1.155e-002 	             	
       122.339	             	  3.528e-001 	
       122.368	  1.163e-002 	             	
       122.403	             	  3.528e-001 	
       122.432	  1.163e-002 	             	
       122.496	  1.161e-002 	             	
       122.499	             	  3.528e-001 	
       122.560	  1.154e-002 	             	
       122.563	             	  3.528e-001 	
       122.624	  1.157e-002 	             	
       122.627	             	  3.528e-001 	
       122.688	  1.157e-002 	             	
       122.691	             	  3.528e-001 	
       122.752	  1.158e-002 	             	
       122.755	             	  3.528e-001 	
       122.816	  1.161e-002 	             	
       122.819	             	  3.528e-001 	
       122.880	  1.162e-002 	             	
       122.883	             	  3.528e-001 	
       122.944	  1.161e-002 	             	
       122.947	             	  3.528e-001 	
       123.011	             	  3.527e-001 	
       123.040	  1.164e-002 	             	
       123.075	             	  3.527e-001 	
       123.104	  1.171e-002 	             	
       123.139	             	  3.526e-001 	
       123.168	  1.188e-002 	             	
       123.203	             	  3.525e-001 	
       123.232	  1.188e-002 	             	
       123.296	  1.191e-002 	             	
       123.299	             	  3.525e-001 	
       123.360	  1.188e-002 	             	
       123.363	             	  3.525e-001 	
       123.424	  1.187e-002 	             	
       123.427	             	  3.525e-001 	
       123.488	  1.188e-002 	             	
       123.491	             	  3.525e-001 	
       123.552	  1.195e-002 	             	
       123.555	             	  3.525e-001 	
       123.616	  1.186e-002 	             	
       123.619	             	  3.525e-001 	
       123.680	  1.191e-002 	             	
       123.683	             	  3.525e-001 	
       123.744	  1.183e-002 	             	
       123.747	             	  3.525e-001 	
       123.811	             	  3.524e-001 	
       123.840	  1.184e-002 	             	
       123.875	             	  3.524e-001 	
       123.904	  1.185e-002 	             	
       123.939	             	  3.524e-001 	
       123.968	  1.175e-002 	             	
       124.003	             	  3.524e-001 	
       124.032	  1.181e-002 	             	
       124.096	  1.167e-002 	             	
       124.099	             	  3.524e-001 	
       124.161	  1.173e-002 	             	
       124.164	             	  3.524e-001 	
       124.225	  1.167e-002 	             	
       124.228	             	  3.524e-001 	
       124.289	  1.167e-002 	             	
       124.292	             	  3.523e-001 	
       124.353	  1.163e-002 	             	
       124.356	             	  3.524e-001 	
       124.417	  1.157e-002 	             	
       124.420	             	  3.524e-001 	
       124.481	  1.157e-002 	             	
       124.484	             	  3.525e-001 	
       124.545	  1.162e-002 	             	
       124.548	             	  3.525e-001 	
       124.612	             	  3.525e-001 	
       124.641	  1.165e-002 	             	
       124.676	             	  3.525e-001 	
       124.705	  1.167e-002 	             	
       124.740	             	  3.525e-001 	
       124.769	  1.180e-002 	             	
       124.804	             	  3.525e-001 	
       124.833	  1.182e-002 	             	
       124.897	  1.178e-002 	             	
       124.900	             	  3.525e-001 	
       124.961	  1.182e-002 	             	
       124.964	             	  3.525e-001 	
       125.025	  1.175e-002 	             	
       125.028	             	  3.526e-001 	
       125.089	  1.181e-002 	             	
       125.092	             	  3.526e-001 	
       125.153	  1.180e-002 	             	
       125.156	             	  3.526e-001 	
       125.217	  1.196e-002 	             	
       125.220	             	  3.526e-001 	
       125.281	  1.203e-002 	             	
       125.284	             	  3.525e-001 	
       125.345	  1.204e-002 	             	
       125.348	             	  3.524e-001 	
       125.412	             	  3.524e-001 	
       125.441	  1.209e-002 	             	
       125.476	             	  3.523e-001 	
       125.505	  1.205e-002 	             	
       125.540	             	  3.524e-001 	
       125.569	  1.205e-002 	             	
       125.604	             	  3.524e-001 	
       125.633	  1.203e-002 	             	
       125.697	  1.202e-002 	             	
       125.700	             	  3.524e-001 	
       125.761	  1.204e-002 	             	
       125.764	             	  3.524e-001 	
       125.825	  1.211e-002 	             	
       125.828	             	  3.524e-001 	
       125.889	  1.206e-002 	             	
       125.892	             	  3.524e-001 	
       125.953	  1.201e-002 	             	
       125.956	             	  3.525e-001 	
       126.017	  1.204e-002 	             	
       126.020	             	  3.525e-001 	
       126.081	  1.203e-002 	             	
       126.084	             	  3.525e-001 	
       126.145	  1.199e-002 	             	
       126.148	             	  3.525e-001 	
       126.212	             	  3.525e-001 	
       126.241	  1.190e-002 	             	
       126.276	             	  3.525e-001 	
       126.305	  1.195e-002 	             	
       126.340	             	  3.526e-001 	
       126.369	  1.192e-002 	             	
       126.404	             	  3.526e-001 	
       126.433	  1.191e-002 	             	
       126.497	  1.189e-002 	             	
       126.500	             	  3.526e-001 	
       126.561	  1.184e-002 	             	
       126.564	             	  3.527e-001 	
       126.625	  1.178e-002 	             	
       126.628	             	  3.527e-001 	
       126.689	  1.179e-002 	             	
       126.692	             	  3.527e-001 	
       126.753	  1.177e-002 	             	
       126.756	             	  3.526e-001 	
       126.817	  1.180e-002 	             	
       126.820	             	  3.526e-001 	
       126.881	  1.173e-002 	             	
       126.884	             	  3.527e-001 	
       126.945	  1.168e-002 	             	
       126.948	             	  3.527e-001 	
       127.012	             	  3.527e-001 	
       127.041	  1.165e-002 	             	
       127.076	             	  3.527e-001 	
       127.105	  1.162e-002 	             	
       127.140	             	  3.528e-001 	
       127.169	  1.150e-002 	             	
       127.204	             	  3.528e-001 	
       127.233	  1.154e-002 	             	
       127.297	  1.151e-002 	             	
       127.300	             	  3.529e-001 	
       127.361	  1.152e-002 	             	
       127.364	             	  3.530e-001 	
       127.425	  1.154e-002 	             	
       127.428	             	  3.530e-001 	
       127.489	  1.154e-002 	             	
       127.492	             	  3.529e-001 	
       127.553	  1.157e-002 	             	
       127.556	             	  3.529e-001 	
       127.617	  1.155e-002 	             	
       127.620	             	  3.529e-001 	
       127.681	  1.156e-002 	             	
       127.684	             	  3.528e-001 	
       127.745	  1.160e-002 	             	
       127.748	             	  3.528e-001 	
       127.812	             	  3.528e-001 	
       127.841	  1.154e-002 	             	
       127.876	             	  3.528e-001 	
       127.905	  1.157e-002 	             	
       127.940	             	  3.528e-001 	
       127.969	  1.149e-002 	             	
       128.004	             	  3.528e-001 	
       128.033	  1.146e-002 	             	
       128.097	  1.148e-002 	             	
       128.100	             	  3.528e-001 	
       128.161	  1.142e-002 	             	
       128.164	             	  3.528e-001 	
       128.225	  1.138e-002 	             	
       128.228	             	  3.528e-001 	
       128.289	  1.132e-002 	             	
       128.291	             	  3.528e-001 	
       128.353	  1.133e-002 	             	
       128.356	             	  3.527e-001 	
       128.417	  1.136e-002 	             	
       128.420	             	  3.527e-001 	
       128.481	  1.138e-002 	             	
       128.484	             	  3.528e-001 	
       128.545	  1.132e-002 	             	
       128.548	             	  3.528e-001 	
       128.611	             	  3.529e-001 	
       128.641	  1.129e-002 	             	
       128.675	             	  3.529e-001 	
       128.705	  1.133e-002 	             	
       128.740	             	  3.528e-001 	
       128.769	  1.130e-002 	             	
       128.803	             	  3.528e-001 	
       128.833	  1.138e-002 	             	
       128.897	  1.135e-002 	             	
       128.900	             	  3.528e-001 	
       128.961	  1.129e-002 	             	
       128.964	             	  3.528e-001 	
       129.025	  1.135e-002 	             	
       129.027	             	  3.529e-001 	
       129.089	  1.139e-002 	             	
       129.091	             	  3.529e-001 	
       129.153	  1.142e-002 	             	
       129.155	             	  3.529e-001 	
       129.217	  1.141e-002 	             	
       129.219	             	  3.528e-001 	
       129.281	  1.139e-002 	             	
       129.283	             	  3.528e-001 	
       129.345	  1.140e-002 	             	
       129.347	             	  3.528e-001 	
       129.412	             	  3.528e-001 	
       129.441	  1.136e-002 	             	
       129.476	             	  3.527e-001 	
       129.505	  1.144e-002 	             	
       129.539	             	  3.528e-001 	
       129.569	  1.141e-002 	             	
       129.603	             	  3.528e-001 	
       129.633	  1.146e-002 	             	
       129.697	  1.143e-002 	             	
       129.699	             	  3.527e-001 	
       129.761	  1.146e-002 	             	
       129.763	             	  3.527e-001 	
       129.825	  1.144e-002 	             	
       129.827	             	  3.526e-001 	
       129.889	  1.142e-002 	             	
       129.891	             	  3.526e-001 	
       129.953	  1.145e-002 	             	
       129.955	             	  3.527e-001 	
       130.017	  1.141e-002 	             	
       130.019	             	  3.527e-001 	
       130.081	  1.141e-002 	             	
       130.083	             	  3.528e-001 	
       130.145	  1.143e-002 	             	
       130.147	             	  3.527e-001 	
       130.211	             	  3.527e-001 	
       130.241	  1.146e-002 	             	
       130.275	             	  3.527e-001 	
       130.304	  1.147e-002 	             	
       130.339	             	  3.527e-001 	
       130.369	  1.147e-002 	             	
       130.403	             	  3.527e-001 	
       130.433	  1.142e-002 	             	
       130.467	             	  3.526e-001 	
       130.497	  1.146e-002 	             	
       130.561	  1.151e-002 	             	
       130.564	             	  3.526e-001 	
       130.625	  1.155e-002 	             	
       130.627	             	  3.526e-001 	
       130.689	  1.156e-002 	             	
       130.691	             	  3.527e-001 	
       130.753	  1.159e-002 	             	
       130.755	             	  3.527e-001 	
       130.817	  1.161e-002 	             	
       130.820	             	  3.527e-001 	
       130.880	  1.159e-002 	             	
       130.884	             	  3.526e-001 	
       130.944	  1.160e-002 	             	
       130.947	             	  3.527e-001 	
       131.011	             	  3.527e-001 	
       131.040	  1.164e-002 	             	
       131.075	             	  3.527e-001 	
       131.105	  1.158e-002 	             	
       131.139	             	  3.528e-001 	
       131.169	  1.160e-002 	             	
       131.203	             	  3.527e-001 	
       131.233	  1.156e-002 	             	
       131.267	             	  3.527e-001 	
       131.296	  1.155e-002 	             	
       131.361	  1.150e-002 	             	
       131.363	             	  3.527e-001 	
       131.424	  1.148e-002 	             	
       131.427	             	  3.528e-001 	
       131.489	  1.149e-002 	             	
       131.491	             	  3.528e-001 	
       131.553	  1.141e-002 	             	
       131.555	             	  3.529e-001 	
       131.616	  1.143e-002 	             	
       131.619	             	  3.528e-001 	
       131.680	  1.142e-002 	             	
       131.683	             	  3.528e-001 	
       131.744	  1.141e-002 	             	
       131.747	             	  3.528e-001 	
       131.811	             	  3.529e-001 	
       131.840	  1.144e-002 	             	
       131.875	             	  3.529e-001 	
       131.904	  1.143e-002 	             	
       131.939	             	  3.528e-001 	
       131.968	  1.145e-002 	             	
       132.003	             	  3.528e-001 	
       132.033	  1.141e-002 	             	
       132.067	             	  3.528e-001 	
       132.096	  1.139e-002 	             	
       132.160	  1.140e-002 	             	
       132.163	             	  3.528e-001 	
       132.225	  1.127e-002 	             	
       132.227	             	  3.529e-001 	
       132.289	  1.133e-002 	             	
       132.291	             	  3.529e-001 	
       132.352	  1.127e-002 	             	
       132.355	             	  3.529e-001 	
       132.416	  1.131e-002 	             	
       132.419	             	  3.529e-001 	
       132.480	  1.129e-002 	             	
       132.483	             	  3.529e-001 	
       132.545	  1.130e-002 	             	
       132.547	             	  3.528e-001 	
       132.608	  1.129e-002 	             	
       132.611	             	  3.528e-001 	
       132.675	             	  3.528e-001 	
       132.704	  1.129e-002 	             	
       132.739	             	  3.528e-001 	
       132.768	  1.121e-002 	             	
       132.803	             	  3.529e-001 	
       132.832	  1.120e-002 	             	
       132.867	             	  3.530e-001 	
       132.896	  1.115e-002 	             	
       132.960	  1.108e-002 	             	
       132.963	             	  3.531e-001 	
       133.024	  1.102e-002 	             	
       133.027	             	  3.531e-001 	
       133.088	  1.098e-002 	             	
       133.091	             	  3.531e-001 	
       133.152	  1.087e-002 	             	
       133.155	             	  3.531e-001 	
       133.216	  1.073e-002 	             	
       133.219	             	  3.530e-001 	
       133.280	  1.053e-002 	             	
       133.283	             	  3.530e-001 	
       133.344	  1.058e-002 	             	
       133.347	             	  3.530e-001 	
       133.408	  1.090e-002 	             	
       133.411	             	  3.531e-001 	
       133.475	             	  3.531e-001 	
       133.504	  1.089e-002 	             	
       133.539	             	  3.532e-001 	
       133.568	  1.094e-002 	             	
       133.603	             	  3.532e-001 	
       133.632	  1.096e-002 	             	
       133.667	             	  3.532e-001 	
       133.696	  1.090e-002 	             	
       133.760	  1.091e-002 	             	
       133.763	             	  3.532e-001 	
       133.824	  1.094e-002 	             	
       133.827	             	  3.532e-001 	
       133.888	  1.096e-002 	             	
       133.891	             	  3.531e-001 	
       133.952	  1.092e-002 	             	
       133.955	             	  3.531e-001 	
       134.016	  1.094e-002 	             	
       134.019	             	  3.531e-001 	
       134.080	  1.096e-002 	             	
       134.083	             	  3.531e-001 	
       134.144	  1.099e-002 	             	
       134.147	             	  3.531e-001 	
       134.208	  1.096e-002 	             	
       134.211	             	  3.531e-001 	
       134.275	             	  3.531e-001 	
       134.304	  1.101e-002 	             	
       134.339	             	  3.531e-001 	
       134.368	  1.096e-002 	             	
       134.403	             	  3.532e-001 	
       134.432	  1.100e-002 	             	
       134.467	             	  3.531e-001 	
       134.496	  1.098e-002 	             	
       134.560	  1.099e-002 	             	
       134.563	             	  3.531e-001 	
       134.624	  1.098e-002 	             	
       134.627	             	  3.531e-001 	
       134.688	  1.100e-002 	             	
       134.691	             	  3.530e-001 	
       134.752	  1.097e-002 	             	
       134.755	             	  3.529e-001 	
       134.816	  1.095e-002 	             	
       134.819	             	  3.529e-001 	
       134.880	  1.098e-002 	             	
       134.883	             	  3.529e-001 	
       134.944	  1.096e-002 	             	
       134.947	             	  3.528e-001 	
       135.008	  1.102e-002 	             	
       135.011	             	  3.528e-001 	
       135.075	             	  3.528e-001 	
       135.104	  1.098e-002 	             	
       135.139	             	  3.529e-001 	
       135.168	  1.102e-002 	             	
       135.203	             	  3.529e-001 	
       135.232	  1.101e-002 	             	
       135.267	             	  3.530e-001 	
       135.296	  1.103e-002 	             	
       135.360	  1.099e-002 	             	
       135.363	             	  3.530e-001 	
       135.424	  1.097e-002 	             	
       135.427	             	  3.529e-001 	
       135.488	  1.095e-002 	             	
       135.491	             	  3.529e-001 	
       135.552	  1.094e-002 	             	
       135.555	             	  3.528e-001 	
       135.616	  1.100e-002 	             	
       135.619	             	  3.527e-001 	
       135.680	  1.098e-002 	             	
       135.683	             	  3.526e-001 	
       135.744	  1.100e-002 	             	
       135.747	             	  3.526e-001 	
       135.808	  1.096e-002 	             	
       135.811	             	  3.526e-001 	
       135.875	             	  3.526e-001 	
       135.904	  1.111e-002 	             	
       135.939	             	  3.527e-001 	
       135.968	  1.112e-002 	             	
       136.003	             	  3.527e-001 	
       136.032	  1.112e-002 	             	
       136.067	             	  3.527e-001 	
       136.096	  1.109e-002 	             	
       136.160	  1.110e-002 	             	
       136.163	             	  3.527e-001 	
       136.224	  1.116e-002 	             	
       136.227	             	  3.528e-001 	
       136.288	  1.117e-002 	             	
       136.291	             	  3.527e-001 	
       136.352	  1.123e-002 	             	
       136.355	             	  3.528e-001 	
       136.416	  1.122e-002 	             	
       136.419	             	  3.528e-001 	
       136.480	  1.115e-002 	             	
       136.483	             	  3.528e-001 	
       136.544	  1.120e-002 	             	
       136.547	             	  3.528e-001 	
       136.608	  1.103e-002 	             	
       136.611	             	  3.528e-001 	
       136.675	             	  3.528e-001 	
       136.704	  1.108e-002 	             	
       136.739	             	  3.528e-001 	
       136.768	  1.105e-002 	             	
       136.803	             	  3.527e-001 	
       136.832	  1.103e-002 	             	
       136.867	             	  3.527e-001 	
       136.896	  1.102e-002 	             	
       136.960	  1.100e-002 	             	
       136.963	             	  3.526e-001 	
       137.024	  1.095e-002 	             	
       137.027	             	  3.526e-001 	
       137.088	  1.094e-002 	             	
       137.091	             	  3.525e-001 	
       137.152	  1.094e-002 	             	
       137.155	             	  3.525e-001 	
       137.216	  1.095e-002 	             	
       137.219	             	  3.525e-001 	
       137.280	  1.096e-002 	             	
       137.283	             	  3.526e-001 	
       137.344	  1.096e-002 	             	
       137.347	             	  3.526e-001 	
       137.408	  1.091e-002 	             	
       137.411	             	  3.527e-001 	
       137.475	             	  3.527e-001 	
       137.504	  1.096e-002 	             	
       137.539	             	  3.527e-001 	
       137.568	  1.092e-002 	             	
       137.603	             	  3.528e-001 	
       137.632	  1.098e-002 	             	
       137.667	             	  3.528e-001 	
       137.696	  1.096e-002 	             	
       137.760	  1.096e-002 	             	
       137.763	             	  3.528e-001 	
       137.824	  1.091e-002 	             	
       137.827	             	  3.528e-001 	
       137.888	  1.092e-002 	             	
       137.891	             	  3.528e-001 	
       137.952	  1.092e-002 	             	
       137.955	             	  3.527e-001 	
       138.016	  1.089e-002 	             	
       138.019	             	  3.527e-001 	
       138.080	  1.089e-002 	             	
       138.083	             	  3.526e-001 	
       138.144	  1.087e-002 	             	
       138.147	             	  3.526e-001 	
       138.208	  1.084e-002 	             	
       138.211	             	  3.526e-001 	
       138.275	             	  3.526e-001 	
       138.304	  1.080e-002 	             	
       138.339	             	  3.527e-001 	
       138.368	  1.083e-002 	             	
       138.403	             	  3.527e-001 	
       138.432	  1.080e-002 	             	
       138.467	             	  3.527e-001 	
       138.496	  1.080e-002 	             	
       138.560	  1.080e-002 	             	
       138.563	             	  3.527e-001 	
       138.624	  1.071e-002 	             	
       138.627	             	  3.527e-001 	
       138.688	  1.067e-002 	             	
       138.691	             	  3.527e-001 	
       138.752	  1.059e-002 	             	
       138.755	             	  3.527e-001 	
       138.816	  1.058e-002 	             	
       138.819	             	  3.526e-001 	
       138.880	  1.061e-002 	             	
       138.883	             	  3.527e-001 	
       138.944	  1.060e-002 	             	
       138.947	             	  3.527e-001 	
       139.008	  1.059e-002 	             	
       139.011	             	  3.528e-001 	
       139.075	             	  3.528e-001 	
       139.104	  1.060e-002 	             	
       139.139	             	  3.529e-001 	
       139.168	  1.064e-002 	             	
       139.203	             	  3.529e-001 	
       139.232	  1.060e-002 	             	
       139.267	             	  3.529e-001 	
       139.296	  1.061e-002 	             	
       139.360	  1.064e-002 	             	
       139.363	             	  3.529e-001 	
       139.424	  1.065e-002 	             	
       139.427	             	  3.528e-001 	
       139.488	  1.065e-002 	             	
       139.491	             	  3.527e-001 	
       139.552	  1.060e-002 	             	
       139.555	             	  3.527e-001 	
       139.616	  1.064e-002 	             	
       139.619	             	  3.527e-001 	
       139.680	  1.070e-002 	             	
       139.683	             	  3.527e-001 	
       139.744	  1.071e-002 	             	
       139.747	             	  3.526e-001 	
       139.808	  1.072e-002 	             	
       139.811	             	  3.526e-001 	
       139.875	             	  3.526e-001 	
       139.904	  1.066e-002 	             	
       139.939	             	  3.527e-001 	
       139.968	  1.053e-002 	             	
       140.003	             	  3.526e-001 	
       140.032	  1.065e-002 	             	
       140.067	             	  3.525e-001 	
       140.096	  1.068e-002 	             	
       140.160	  1.082e-002 	             	
       140.163	             	  3.524e-001 	
       140.224	  1.084e-002 	             	
       140.227	             	  3.524e-001 	
       140.288	  1.083e-002 	             	
       140.291	             	  3.524e-001 	
       140.352	  1.087e-002 	             	
       140.355	             	  3.525e-001 	
       140.416	  1.087e-002 	             	
       140.419	             	  3.525e-001 	
       140.480	  1.083e-002 	             	
       140.483	             	  3.526e-001 	
       140.544	  1.083e-002 	             	
       140.547	             	  3.527e-001 	
       140.608	  1.083e-002 	             	
       140.611	             	  3.528e-001 	
       140.675	             	  3.528e-001 	
       140.704	  1.082e-002 	             	
       140.739	             	  3.528e-001 	
       140.768	  1.081e-002 	             	
       140.803	             	  3.528e-001 	
       140.832	  1.078e-002 	             	
       140.867	             	  3.528e-001 	
       140.896	  1.082e-002 	             	
       140.960	  1.080e-002 	             	
       140.963	             	  3.528e-001 	
       141.024	  1.079e-002 	             	
       141.027	             	  3.527e-001 	
       141.088	  1.074e-002 	             	
       141.091	             	  3.527e-001 	
       141.152	  1.079e-002 	             	
       141.155	             	  3.526e-001 	
       141.216	  1.075e-002 	             	
       141.219	             	  3.526e-001 	
       141.280	  1.074e-002 	             	
       141.283	             	  3.526e-001 	
       141.344	  1.078e-002 	             	
       141.347	             	  3.526e-001 	
       141.408	  1.086e-002 	             	
       141.411	             	  3.527e-001 	
       141.475	             	  3.527e-001 	
       141.504	  1.080e-002 	             	
       141.539	             	  3.527e-001 	
       141.568	  1.081e-002 	             	
       141.604	             	  3.527e-001 	
       141.633	  1.084e-002 	             	
       141.668	             	  3.527e-001 	
       141.697	  1.083e-002 	             	
       141.761	  1.090e-002 	             	
       141.764	             	  3.527e-001 	
       141.825	  1.085e-002 	             	
       141.828	             	  3.526e-001 	
       141.889	  1.084e-002 	             	
       141.892	             	  3.526e-001 	
       141.953	  1.087e-002 	             	
       141.956	             	  3.526e-001 	
